,Fz,C3,Cz,C4
0,0.4608300758685144,3.125699118708772,7.534270635659613,14.878709325436049
1,1.987034429209999,11.353150273506085,23.797829625539,47.82116890966611
2,3.939880176019848,17.84538683112924,34.21249605348628,63.355281479165214
3,5.4324199397676445,22.17377347170045,37.96137688822316,58.4784193054947
4,6.7012244269730985,26.18758469953532,39.670736785405296,40.22199388061037
5,8.097458787404992,25.32645217463805,36.23655181430462,4.061643413017521
6,9.296080958601207,26.20816018994296,23.088250018598387,-21.265066200229057
7,10.080493892326205,26.141186649395536,4.7793117916005485,-38.24192652574152
8,11.250556468314445,19.72004491324708,-9.440644960488612,-54.71643158104303
9,12.422955406774662,15.860445604734764,-24.874385232793543,-59.469008188747694
10,12.317549227823264,10.622023738725147,-37.37624001015524,-47.18493132291633
11,12.586332237393094,2.7472707118687367,-45.62972119086567,-16.498162821509595
12,13.6348895679439,-3.364507488802701,-48.610675418484334,10.429845009262865
13,12.783351456204969,-10.745296765623609,-37.04494543946271,29.63285032319186
14,11.58606458961856,-17.809750142031135,-24.504463323256232,49.66122597792355
15,11.77948426005321,-23.64465405528153,-14.169529329451509,57.31581686716527
16,10.916622966491104,-27.535731676763817,2.382571434062584,42.90967149972517
17,9.385300431044923,-27.755375360783543,15.692834323184798,23.93407018795847
18,8.429707538448156,-27.91489669248631,27.723197157547474,-3.101019658100995
19,7.319743806450788,-28.44068231146821,39.34025231575288,-33.12527359210776
20,5.730190951840086,-25.92709564983761,39.01767711503953,-45.439306716635656
21,3.8959712170819785,-21.45607516632981,35.986062716405286,-54.74014630879128
22,2.420550056439652,-14.981945230816564,30.179003018543423,-47.21951774291665
23,0.6350798779062643,-8.351488780906493,16.50526980425957,-28.549624864201636
24,-1.3159245179722348,-2.601231451053536,1.1872259116128134,-6.19002274615832
25,-2.9424204695133085,5.159657210205751,-14.785685021206518,29.47577888051319
26,-4.799738172643629,11.45172717972855,-27.570179991895657,51.740101887111
27,-6.367318939291636,16.638783106982373,-37.00729986037686,56.58198121792793
28,-7.958812050120287,21.299472861598133,-38.85365630914566,44.9141089911268
29,-9.649460776804062,23.155797273317603,-39.86026916512719,27.13956247164424
30,-10.578661781528352,25.56035255004417,-38.11688857290255,8.668397013552749
31,-11.853133090533449,25.89548580333212,-21.737201227940204,-21.47364251168983
32,-13.244743380540513,23.728843819170837,-6.651270422149992,-46.56637897674364
33,-13.579062488160162,22.205251104316176,5.786547897399032,-60.76834416139127
34,-14.319294715183332,16.357525170285953,20.96987172773015,-59.86727886332301
35,-14.890396749631693,9.300626261120216,30.88225726274095,-42.0258172067538
36,-14.8073512998144,3.633521200958967,37.15475873996775,-20.06168225286137
37,-14.95533306537436,-4.211373679770986,42.76646724783359,9.92956656247452
38,-14.436768553180627,-10.585585353023362,37.12023398355223,33.173763799021344
39,-14.365863337347946,-16.68596642116063,20.45812986348892,42.02728289708284
40,-14.294246298519283,-23.271698677532186,10.124182442142684,51.66472370388783
41,-12.981934417962291,-26.694782406400464,-2.465624354791089,44.428811705016415
42,-12.217179409569326,-27.25293026521331,-20.38454670345573,21.20393896892074
43,-11.031565565696836,-27.505306664991625,-32.19721914114916,-3.640240729234392
44,-9.086328588905417,-27.715703072352422,-44.70199498510465,-33.17661012301505
45,-8.09650168265307,-24.669067097586776,-47.90506739449029,-53.48057606387101
46,-6.379863318311436,-21.01919957759401,-38.10312027433338,-57.23700535827538
47,-4.346431057152586,-16.52299146568066,-31.688405344738385,-49.070169948123294
48,-3.020057299144355,-8.423621768018165,-19.830318196277403,-32.03942178930993
49,-0.9361628709511932,-1.7601260461660786,-0.9327247464766516,-3.436206840192426
50,0.7360283982620786,4.623398155436007,12.971270629757782,25.8529891996468
51,2.303970000740719,11.84150946795853,26.4447603903227,38.42588022851214
52,4.315351498730252,18.01188228828687,38.37968539252961,49.6687690588933
53,5.603269249136247,24.76859180237443,46.309266257312174,53.60219710081037
54,7.090688343529564,26.13388071362624,43.23678500274082,31.30445932597649
55,8.672762664889433,25.55093663505704,31.37360412253247,7.5849607251539055
56,9.724954612329384,28.146657840490207,24.025181145698756,-14.611014551161134
57,11.028584736242465,25.33456023013605,7.330614185194463,-42.33594552427349
58,12.043124065311533,22.01486717534999,-12.614994422436212,-56.749848624896
59,12.118926471023316,17.395427866513728,-23.07013352768263,-54.16281832415825
60,12.722632793660525,8.644567210870264,-36.5835008671429,-37.86869664599181
61,13.006183144249915,4.117523712585353,-44.46532966913355,-17.25319813642909
62,12.595908308097478,-3.3350740075429712,-41.38254653624199,9.356837662006
63,12.895344491302694,-11.813995317088484,-37.043683950432296,38.40462232832488
64,12.548038911204912,-17.09066065121806,-27.6425454259861,51.611641266932565
65,11.967209975982314,-22.698268990208817,-14.687027883437167,49.45720326641458
66,11.098824846043044,-26.397975739467256,-0.0416960868828937,39.37441638154178
67,10.043357206483051,-30.02876169299361,18.065843165976275,26.392978513914382
68,9.266237214839748,-30.11228461479732,30.74000672110742,-2.9119689315075448
69,7.248725885531712,-29.41997852030272,38.960367245458656,-37.58683549187572
70,5.582192454897268,-27.65586570285177,43.4678628275783,-53.68781116217178
71,4.29218192699409,-20.97964635445078,39.99756486715387,-59.80362130855701
72,2.510912884497884,-16.24921313681989,29.421667899594468,-51.56811763940004
73,0.9616720158537646,-9.255364623036256,14.617196721055734,-27.90354658669185
74,-0.8079940371089833,-1.0164500058763224,0.3923078624761729,-4.509704630781016
75,-2.631348322811391,4.4258236929536,-14.446765214816423,20.822166395095337
76,-4.368880164003713,11.416892558518157,-28.71252261831296,46.43631794630437
77,-6.010759921638964,17.599315257307353,-37.8846533958349,60.99897455845257
78,-7.5905181163007,22.24020370740891,-41.19738642899301,60.75458990157495
79,-9.203605473181597,26.861479301912368,-40.15044758212935,38.61177751442756
80,-10.724607591005224,27.912770052443197,-30.72644212536943,8.518543672390479
81,-12.023017495703243,24.772283702021014,-17.848196310430467,-16.265200825756438
82,-12.841515759277172,22.59868386684775,-8.502141210366062,-37.73864623605368
83,-13.419800271445638,20.906937510058924,6.45644766581654,-46.19077557512901
84,-14.334693536088707,17.21802827357442,22.92460306361636,-49.07686839303278
85,-15.404096132726409,11.457854829281132,32.4693063159998,-43.70463160767849
86,-15.189968643806424,3.927444836882387,38.170313491058096,-17.41018583868481
87,-14.475151498510968,-3.4298013358747994,39.02446164910316,11.132036754844194
88,-14.801754760203949,-10.377900885186136,30.82070284965448,34.54451324483489
89,-14.164528962736767,-15.6216770019646,24.06451692336168,54.10820589478863
90,-13.240029255753145,-21.01116798025214,15.631958118604416,60.1576340939273
91,-13.35188959127845,-27.27169367053375,-6.028130766134382,51.324660774460426
92,-11.769454165161733,-29.669359324463585,-20.193523505178742,26.31358241416092
93,-9.860441062046448,-29.692882128109886,-30.519332464894436,-6.806042972615614
94,-9.352594887351188,-27.78794885136358,-43.75639799681812,-33.15368908011442
95,-7.806933674693028,-22.97559293096492,-43.13610693698956,-52.18225773591621
96,-5.810423135369092,-19.075573764138426,-39.66897830400194,-58.31825585535353
97,-4.315781975386926,-14.948692582854164,-34.75865790958869,-42.87632663649492
98,-2.448283152330987,-8.940857757357662,-17.511507219614032,-27.00274753587473
99,-0.7425304119660723,-1.7134228070444806,-0.8598039065227567,-8.571363601900885
100,0.987963347864934,6.077627319233216,12.182899910198556,23.466423575731824
101,2.87444746712481,12.672714585217363,29.04503527642464,41.87970747019608
102,4.404660607770893,18.049501388696623,38.81984185169358,55.56727395998951
103,5.977698812728704,21.89867937832696,40.16411512721561,62.138356647359615
104,7.675331063855992,26.6591645868657,37.87570103089911,37.14202969955568
105,9.269723678314222,28.78205746205367,28.49258262182184,6.11114343457939
106,10.433910857372211,25.481971329965745,18.85621686845297,-18.06197684345807
107,11.239394849888413,24.876684457078227,6.59218325607344,-44.75734920033028
108,11.77450550336016,21.631034765045115,-9.834522335394468,-60.357819645091695
109,12.409872672576968,14.95006500456293,-22.786013398442265,-51.80430535713276
110,13.02872968992051,10.850878874180124,-36.16280491232828,-35.92629859331828
111,13.327560051719049,3.318555354017917,-44.40937520270472,-22.073170390798623
112,13.683469339893236,-3.6002451683443724,-44.83778726045148,8.161730592414642
113,13.001611599421269,-9.420000275435086,-42.20258700367504,37.81028968283681
114,12.614217435663704,-17.16555810220052,-27.90866883474609,49.38229682761266
115,12.76459041225462,-22.567820479125658,-10.626490708594249,58.48645948324884
116,11.280369712095307,-26.30682260451158,1.021787908051465,50.77507052015972
117,9.72548974595611,-27.34525312844653,18.54316109118145,22.027978409234493
118,8.737487504607088,-27.02173119703275,34.410986052549106,-5.495508155813695
119,7.545042148440189,-26.137790273613973,38.16916694716156,-30.232402854408065
120,6.1371401621308905,-24.183238506993803,38.62071930953198,-47.59690821381082
121,4.518537266028034,-22.69956160894162,37.45802391537018,-51.82989524663208
122,2.946431020581258,-16.164612340853637,26.9520447178611,-48.13276779899115
123,1.2223849174861243,-7.207902822312462,14.527723499426884,-29.10757709358677
124,-0.6520937913155649,-1.492502608140967,3.3348996391664514,-2.8262819106867028
125,-2.2754516813974988,5.927026176160325,-14.028383356148424,25.447550731848423
126,-3.959528598738871,12.368777307335222,-29.349662380966947,48.86307070323619
127,-5.827099968112634,17.58721477668314,-41.85656492197359,52.94483780312476
128,-7.167666954123888,24.316110486765865,-45.38821271104143,57.07260686042719
129,-8.48756884398972,26.03887799695804,-36.53889146780693,38.05357848542553
130,-10.09680779417522,27.636326569252105,-34.19434790819287,4.044136855716715
131,-11.37154418913451,30.15068967688967,-24.682206655995287,-17.36427943981289
132,-12.473559242569536,25.84020344741566,-4.079753931367577,-48.55172396804937
133,-13.297283487460843,22.0641506928514,7.0668842624490935,-58.31309571355814
134,-14.037785163854096,17.876403083424066,20.050955199044893,-56.11484075421686
135,-14.74227396081369,9.679384568083153,34.03790543577725,-50.67384253178261
136,-14.793237078611128,4.026531230837463,39.65589349951552,-18.7244545422418
137,-14.99346459033586,-2.630311823359989,44.02775955836478,8.741858852538826
138,-14.974678683494858,-10.002693875551811,41.82171129659128,30.808408223057995
139,-14.218797444063055,-16.222936478562588,28.147307604484013,51.8185658342818
140,-13.694770758682353,-22.27988964982524,10.865648680022788,62.77229621974948
141,-12.484903964637851,-25.587490048950716,-4.136454078093266,50.24984158572897
142,-11.089041789905425,-28.027916359294977,-20.350784933429168,18.379692421080108
143,-10.535537068438316,-26.590570735250367,-33.03001250912621,-4.904653466109266
144,-9.164757965036188,-24.18460936748579,-36.95032173406025,-33.712727726394405
145,-7.276482377785214,-25.097029089241914,-38.93224044211775,-58.53448087796096
146,-5.722247871535728,-22.18191945819672,-37.03989880913923,-58.282511319603145
147,-3.842856404660779,-15.346591998051736,-28.59083453122412,-48.22346967779686
148,-2.1311886505363877,-8.237043484652531,-15.735049561186315,-30.914459870256906
149,-0.4871941339533805,-1.4090751265384824,-1.480359354347911,-5.591264367426447
150,1.4099762760197336,5.687084049980513,12.786871623944537,24.002482227086148
151,3.0727511270497416,12.284739595243082,28.81152389082513,49.40964870747575
152,4.7092668056275215,18.853430106668384,38.72033495731148,58.89396696902986
153,6.489307355106575,23.26139754109636,37.14150437784883,50.59046360831235
154,7.892888601662889,25.27390029601429,37.52916649009581,36.72124963645547
155,9.0396197990749,29.7886868258679,37.79563760867086,15.227635936976183
156,10.711042115121929,28.72649097309068,21.350566203835115,-18.27211469636768
157,11.76960867233356,25.02246667085774,4.701804871461718,-42.18975109592975
158,12.376177042629934,24.205284577116345,-6.507768380018206,-56.5779487084692
159,13.606247965544298,16.095338464597717,-22.944399652814354,-57.02776614132927
160,13.664480129880758,8.855635242275184,-36.06161792306307,-40.29471669106715
161,13.606621518194515,4.8873131869881945,-43.5358256467714,-20.5744028610352
162,13.9593048767033,-3.319701217220881,-43.84178124462869,8.246893392599304
163,13.237473918855812,-10.116742727188011,-41.65652727143606,34.70580925566355
164,13.511665363172597,-16.593941296246157,-31.01964280281732,50.149401211355325
165,12.818032270647109,-23.071789415443615,-9.914025266541104,54.04100670155822
166,11.049982661949798,-25.97240820418756,3.418861413586683,41.22719860887537
167,11.11812740515461,-26.583760118347072,16.31643225005473,23.33174821560988
168,9.490996339632147,-27.67934894524888,30.44107873989708,-2.1651228393247948
169,7.741920676905011,-28.59863721577767,37.78767353076421,-33.8272361309555
170,7.078743341298377,-25.15495193534844,38.1098245832527,-52.91292227556824
171,4.790274017927459,-20.242640993903933,36.57468033723353,-52.73968205682377
172,3.1203036061538114,-15.455623773495518,33.8514567754097,-45.79482212698895
173,1.5131204422432347,-8.629144823872593,17.442237886605767,-33.286796513006266
174,-0.3637736680293528,-1.473836353532988,0.9010126813534498,-3.3713080215411537
175,-1.9065865244574525,5.629951188862378,-11.640627937479508,22.9092041210597
176,-3.992798876174674,11.94986677020961,-28.491479565062377,43.83741812367316
177,-5.475735229408201,17.09556456292512,-37.67998426982649,64.92606680728204
178,-7.025055029464966,23.299732502147435,-41.626397356765096,55.50361558052464
179,-8.895711337139801,28.77972267163113,-42.9964824321429,31.140552352066152
180,-10.214136616240468,28.364043750215387,-34.53828601912369,11.54091824646639
181,-11.18777356084138,25.200811781537595,-19.96575887652068,-18.094325383814976
182,-12.067828822579033,25.29771278388625,-6.415659800939125,-43.98187535964735
183,-13.206065030077298,22.076665638949635,7.783182863949662,-54.20243659210428
184,-13.595640944670777,15.674587268040796,22.21873816760529,-54.88048358790729
185,-13.768696652692595,12.236746864700764,32.35336564253424,-41.75291492687848
186,-14.3825688273173,4.522419108160193,38.53277291416924,-16.81478106725808
187,-14.283659809348135,-4.327916049938267,40.33550080922328,8.901344127943958
188,-14.026582200418488,-9.531084597915196,34.80628991847311,35.13843146447016
189,-13.34779723668089,-16.155677203114465,24.942031909133107,53.44474011160946
190,-13.006790354062105,-21.808668367296832,14.5238861903498,56.37530830230389
191,-12.719394689611365,-26.60431298095864,-3.233534915123755,49.04496504813687
192,-10.939778345849843,-28.49280003588774,-19.742889679154928,25.399160202835446
193,-10.115776980134797,-27.61169876678514,-30.9710480494648,-5.439545558611826
194,-9.195298238537362,-28.32627657596004,-43.38655303302028,-33.21849159627891
195,-6.9031819616343455,-25.073369239466047,-40.35213842202495,-50.31499658995381
196,-5.440030775456762,-20.57641104647746,-31.66106589923345,-49.5781139219016
197,-4.030322045834055,-16.41822829796365,-28.53426386485125,-50.32943822594007
198,-2.1132835614794203,-7.662552936175871,-15.201882354579311,-36.34494778075623
199,-0.193960011969466,-0.7887823084834054,-0.0356852916953585,-0.5243557931644318
200,1.6000842147577714,4.959166775706308,12.27506680062652,23.287671750761547
201,3.210203991839535,12.873279531659591,26.58310806479949,39.56737308603351
202,4.903097816878017,19.62614238057131,38.46696052146012,55.65761275020032
203,6.44285001522212,24.74418647426341,45.43306311493302,56.569799182134375
204,7.9133274372179585,27.526376767478723,45.106084814326096,32.850138007221176
205,9.504048170253554,29.241495454175947,34.8381217758581,6.36075164340582
206,10.991542166664203,27.20305540096956,18.01296892995947,-14.443740760797482
207,12.103834226445088,24.064786934062568,6.1482539227947655,-41.90057096450892
208,12.920783483538344,22.357905818140352,-7.936374065564451,-52.17614822792257
209,13.252146241698028,15.56449019678712,-24.97259547418298,-53.73827179075033
210,12.962122634929983,10.516426333693516,-31.176313719399104,-48.55905330720361
211,13.224576520123946,5.79023328677772,-37.61081400084163,-17.25414463387642
212,13.508636440896453,-3.8256199267445936,-42.36258316658996,11.590324384031192
213,13.263909556989349,-10.255088579373478,-36.31557660694648,32.14110476566475
214,13.45499496571938,-16.126491757109306,-24.016525841031125,45.2435713722416
215,12.736098846018876,-21.62375061717421,-9.904732249715607,50.25308661016607
216,11.580281198554076,-24.63549991212767,2.293450377458157,48.8696246904874
217,10.869666835169255,-27.01983958606729,19.254323082878727,23.43724851902516
218,9.390359895894107,-28.261004735250932,35.000063809746734,-4.21286839001732
219,8.210430443418545,-27.5475234454068,43.88805963489585,-27.134201712228787
220,6.815554157187989,-22.604012485187923,47.85760531642245,-50.42562188897045
221,4.866476715901626,-18.77281493131545,41.83920013052693,-58.5594475775888
222,3.4682970681733423,-14.52881569258352,30.97368487418953,-51.75942190157366
223,1.595588499058067,-7.469118758333707,16.999253214775763,-28.74161713534886
224,-0.2219491830255719,-1.804841213545842,1.9969672071702007,-5.431618526195052
225,-1.802858593876408,5.851678167175805,-13.733802387703236,22.871350595905824
226,-3.786385211694324,12.34961143518467,-30.220370164342057,49.02306976305135
227,-5.446468426862339,18.45577396739543,-37.01941139817745,54.4446907680167
228,-6.853988941366424,26.074333773952844,-39.278120074891376,54.83589354177275
229,-8.46351367201214,28.542785297169644,-39.15494794160804,30.978931290961555
230,-9.87085541351962,29.799471927926334,-30.875292585260013,4.775347977529236
231,-10.947958457569712,30.97837641817324,-19.951185341431938,-13.318922458352972
232,-12.580895276659705,27.545850698198198,-6.830253378506313,-46.65696576274695
233,-13.577322838672444,22.192815954418563,8.569204446204822,-60.0808607196168
234,-13.449282650956777,17.599187617704104,22.203798908034518,-56.28567665333503
235,-13.491259459208322,12.62321754464574,33.64060670855952,-43.27910702942518
236,-13.501011603271309,4.67417410516066,39.77591776979989,-18.339630827932524
237,-13.696637689207364,-3.5704565675821414,41.27159276702105,7.731486346390739
238,-13.70473022530632,-9.416358691001392,39.04390703918443,33.82393776406934
239,-13.492900984856533,-15.364044183554029,28.414142139475643,48.016264053751
240,-13.041235891842462,-21.92134384942881,13.73434636605498,51.561203021545225
241,-12.053319174321132,-27.32334911819055,-3.722605923937863,41.51735343124801
242,-11.358716971299144,-29.07223023137726,-20.31855915982624,19.95439357083069
243,-10.002236155870378,-27.97562634016242,-29.22821022207836,-4.759004823502437
244,-8.05697311848462,-27.137791707434303,-39.789309174655045,-33.18959933016231
245,-6.615779290299088,-24.258347119451518,-44.11466058727956,-52.16091084086747
246,-5.12551292189778,-18.83191245466878,-33.709894996785806,-58.50793965842695
247,-3.629588813106693,-14.951045575873197,-28.69694382706666,-49.53564540249408
248,-1.9912792246109348,-8.958843226722024,-22.149438943503355,-26.29357329591676
249,-0.095289262313372,-0.4195408812284995,-1.5885707881184317,-2.651930859575714
250,1.7068590362484883,5.534384211443637,14.43335667609108,26.950835237902535
251,3.540878279939193,11.608607021204648,25.970301648796976,52.93461790136507
252,5.074973605838181,17.42380219301765,38.46384676337857,58.06303466607869
253,6.6191589921209015,21.500065358412485,43.11325407392769,51.97854292901775
254,8.349481686122033,26.479553678295417,40.26056457211144,36.99564118633816
255,9.438176265195352,29.37319350069845,32.489047663191286,10.07703581695796
256,10.761879111468886,26.84894768739696,20.20216110745423,-17.21894632649446
257,12.170549516322154,25.416916022648024,7.537629107219345,-39.1883600285264
258,12.492836920732543,24.596469213125943,-6.946437612055433,-54.52263492880775
259,13.095856868090353,17.856344345654406,-22.02887764755769,-49.67941534830516
260,14.103737109337658,11.778121746657348,-30.633992762618615,-37.51964425378446
261,14.431290438444307,5.335527435938104,-40.1488061415057,-22.692623740529143
262,14.478367760891558,-3.294391578043985,-45.45619619594754,11.623660355060563
263,14.306004378666444,-9.473962628252307,-38.27344820353028,40.13674491181382
264,13.331361124675652,-16.473395623135275,-28.52298986687356,50.89180839086566
265,12.439580171870716,-21.61029069464115,-13.111732001503697,48.19306653582953
266,12.272411809780069,-25.514220548090407,4.294675663135877,40.77930500642151
267,11.242569985360888,-28.20990001324074,18.60194886719501,29.65381768858424
268,9.357121040146012,-26.66882340179052,32.55369147295551,-5.064138356345666
269,7.8966104937972545,-26.372920599220578,37.74769455751448,-32.126302176216086
270,6.671236478943229,-24.423434980692434,38.26655929241952,-46.80353616363618
271,5.278770816655765,-19.947516978959925,38.626452101445466,-64.45967037583796
272,3.778717875161192,-14.059768879058652,33.06461574743298,-55.58143732301232
273,1.8462646494257624,-6.5036055479641846,18.29084371969202,-28.01041333086596
274,-0.214413062032861,-1.1898832520004134,0.4472762170598798,-2.297653260244715
275,-1.6819367014984152,6.315850519232185,-12.55688723952153,21.7224355701062
276,-3.359211957499326,13.441405304918137,-28.639445017807247,41.87670818112315
277,-5.277682483532175,18.11846944032527,-40.78032091953264,58.41381375868832
278,-6.984943172074537,24.622444069475705,-39.765440596682765,57.29789943040828
279,-8.595279385449402,28.227540365910727,-40.33729654500257,33.93395304966771
280,-9.62048922855115,27.59128362153706,-35.03278388520994,10.16366846661458
281,-10.764013843826206,26.11469235219488,-17.956298461130245,-15.85497187551482
282,-12.043595853396369,26.2242619185522,-6.915819869263032,-41.23316985246743
283,-12.729804957978502,22.668407863354105,7.439082075159604,-54.15031625822735
284,-13.431852704379338,15.76119287543338,25.10336482893672,-55.85865044993216
285,-13.662159104093206,12.285163109483848,33.109042258812224,-40.46908276865793
286,-13.744917340172009,4.943568082652291,40.60836893132728,-18.800040181853888
287,-14.095113212786316,-3.5795486864124086,42.43419470217668,9.477188611929703
288,-13.939899654886888,-8.572648599503736,34.18950223762113,37.34450416840326
289,-13.488575360055478,-16.123860174525817,24.149849200342032,52.34051653189658
290,-12.50205709774488,-21.84180535725841,11.835776432798411,59.97747508621242
291,-11.64320843904548,-24.792471226451426,-3.548045133135929,49.79444131956827
292,-10.87926129761999,-28.431926286053567,-19.43305257249267,25.18977679865685
293,-9.390571720628486,-28.17613202850771,-33.684765260566564,-4.455558887943049
294,-8.313889987592347,-26.584608707597,-43.21281595173241,-28.84077223989368
295,-7.18418878606019,-27.256306224393484,-44.58293067359682,-43.80675737866186
296,-5.148153397269539,-21.11338515110833,-40.88868342241403,-48.4976284999948
297,-3.4333961134151423,-13.1447167299209,-32.12927624563872,-43.49802779114461
298,-1.9613681537022103,-9.293649472379911,-15.436090520273863,-32.22097792437128
299,0.0032704855834708,-0.7417445717358078,-0.4514736078708665,-2.8553616253861094
300,1.879362302243408,7.2804394188488,14.20913468262188,22.74884091298497
301,3.54602844904548,12.924464211990426,28.721443958170312,41.15591829452592
302,5.0669273603350575,19.875735132831323,36.18210473001545,60.79651656726128
303,6.601193316435456,24.849284902516047,43.12621466370638,53.073665099853656
304,8.219021895576816,28.624279209157063,40.60719107980276,30.45707070095466
305,9.532702588156098,29.83531346926065,33.88010548820694,8.862182790523548
306,11.054125295779158,29.14906939445791,24.985903873091047,-19.47819775897608
307,12.540246065168503,26.991525861804348,4.598874060973685,-44.61469440272776
308,13.015114513392293,21.50575740495833,-8.907519322137887,-52.86521123240095
309,13.01844635213547,16.02596839796297,-22.278728725717883,-46.197105339781615
310,13.715257524638671,10.974806680449548,-35.040583315155345,-38.13250148327006
311,14.60510065981407,4.452900799717099,-36.38269639111695,-20.12309430046821
312,14.25725559141074,-2.9560142318050566,-40.559919918820015,10.987368695523628
313,13.833403101008573,-9.74692508404496,-40.11823593051213,37.81140603979202
314,13.905390411531243,-16.03053760525563,-25.64999832282956,56.602748338480296
315,13.057361134654457,-21.39744987195081,-10.891865556827725,57.62573443807196
316,12.127401315809038,-24.29288750355317,2.03442918262499,44.6233832672408
317,11.261395933496717,-28.29725544388566,19.397072475314417,26.774419268876272
318,9.896840142772817,-29.18773386522344,32.414667860022746,-3.114952541847288
319,8.206076295475214,-24.8762811641036,41.24253436278832,-31.29418318043122
320,6.616115409824033,-23.615509201163604,45.7570399987444,-49.84891629603021
321,5.596861017394076,-19.86419145020318,40.58695628370606,-51.80332001597003
322,3.695325860352568,-14.345308166467476,30.1109589077596,-39.82274693122008
323,1.5613320415022829,-8.9668980039919,15.338254168656931,-27.53348284496792
324,0.1346651850440139,-0.0739797653855021,0.6542950204784574,-4.307210340785787
325,-1.6370821607597463,5.667270401504538,-12.865593233785148,20.861593334470854
326,-3.4779333606893488,12.153665250802987,-25.35918850584858,42.009619215466046
327,-5.295812845261935,18.402515520621364,-36.474462965791645,59.81501115838182
328,-6.912891400662829,22.88211758896341,-41.95452034204027,60.02666949700688
329,-8.298999983166595,28.481624767775884,-35.57740932280649,39.49466440234528
330,-9.834676912194482,28.726076925227066,-32.39498814780109,7.350446556763472
331,-11.019610286201896,28.56887894724696,-27.620643765731984,-19.14819810872268
332,-11.889212671763744,26.89819248433196,-8.235842737218263,-42.50566889689594
333,-12.916112695762422,21.526419316650845,8.981093468631116,-60.35708139010785
334,-13.658480287669136,18.121522039442425,23.439586355112624,-60.11817543194161
335,-13.937814257101763,11.475113892561694,38.89315351323148,-44.4910229145512
336,-13.809444536685533,3.9320709887610974,43.89675116211038,-17.013765881383733
337,-13.471935582781498,-2.3749557299538537,39.12347298193163,10.632421058364798
338,-13.373319071807146,-9.995278088014857,33.47332381149499,33.639270967977154
339,-12.792493151147482,-16.616202816470377,25.96674272262044,47.76536796007622
340,-12.408763457413444,-21.647456049460743,10.98369710528641,52.3868099176816
341,-12.398938212288613,-23.553134553868404,-4.666717079987393,50.50467931931598
342,-10.966169544954028,-24.889594087893784,-18.921634378258204,26.12935599489674
343,-9.155381401883004,-26.37506183866799,-32.454690788847984,-7.962118821026252
344,-7.947696906519013,-26.840114829799404,-37.40853848120787,-31.01354978941072
345,-6.659686329162923,-25.623225894364168,-40.18457050900997,-50.66925037068813
346,-5.097482742193733,-19.931767738296458,-40.21643416731513,-57.13049664397067
347,-3.351897693023602,-13.973272592582362,-29.046326299026987,-48.20264460029921
348,-1.8212176493971128,-8.840229366220228,-19.14782185042077,-32.61828119255779
349,0.0297446595586734,-1.279869450041133,-5.024508360218533,-2.8473298870048893
350,1.997116835238557,6.2198211283371165,16.477367703707387,22.004597999164616
351,3.614705979166956,12.703658725562036,27.87998484525906,38.93906105473434
352,5.354920818462233,19.48663297539406,39.12947541757149,57.263096078302624
353,6.761032300052648,24.154528969010244,46.23863743709808,52.20524636165828
354,8.198273270124446,25.66679529241537,37.59933900623855,33.288122954830214
355,9.940432554494691,27.83191249506308,31.297216625867804,13.59298818240859
356,11.27550548565523,28.71996000482068,23.67457146212928,-17.9422756793997
357,12.224507023413937,24.790105227823005,5.4011827375861685,-41.46078117631487
358,12.80208471329388,22.05733411393703,-9.020222855499014,-49.17070248504615
359,13.300617578856873,18.65365882259266,-22.160427088546385,-56.9887462082761
360,13.76622608782327,10.514829295230811,-36.02309998182591,-48.17678149690164
361,13.99210679519183,4.231666208629576,-39.31565264318124,-17.73308489247256
362,14.36126766380221,-2.070731266101575,-40.86819346429729,8.659031727394904
363,14.271242620136036,-9.500684787948558,-38.772583291435694,33.67610453331508
364,13.253486410827463,-14.756872151664991,-24.104503159604064,54.41364859812074
365,12.583641056766282,-19.924683774589084,-11.24936310801786,50.05028918756853
366,12.086926637712168,-25.49199469849964,2.038427765331108,40.56134120346815
367,10.707339935069283,-30.19027635617931,19.718245364108043,30.709637326229316
368,9.440986708797936,-29.97322959304256,28.62224519996198,-1.75537481183801
369,8.285660831972564,-26.210336065818865,36.48471575668009,-29.98825929132181
370,6.959628909544335,-22.68888887170988,43.33949822466275,-43.4707449052712
371,5.670014028687547,-18.42563796863988,39.33709481851293,-53.84352191407834
372,3.634140409710199,-14.049549725368252,30.221063495974704,-45.39135141542556
373,1.7960631159303375,-7.847818482648563,15.802540076951118,-22.278768379895155
374,0.2985851600542446,-0.3887277499075026,0.7702467014314607,-0.8239668198084473
375,-1.6500073019169577,6.5147831873191535,-14.255826383126076,22.89064941262677
376,-3.3231344473997524,13.40364948219758,-30.01692043590356,50.420280339372766
377,-4.967134103776516,18.086973236870108,-38.70837335763099,61.8572857414174
378,-6.680807640599596,22.437265377284348,-45.8194924184254,52.99793423666142
379,-8.081914469096773,26.14796540468797,-41.659834699862586,34.02515933481027
380,-9.44935309394168,27.919972359490203,-28.19687809705374,8.529977920716192
381,-10.473044108684007,29.343113160600296,-22.452911315976053,-15.258536891916265
382,-11.40029996083922,26.47661790461916,-9.149353413937206,-34.26378241533894
383,-12.50186584061248,22.98899748466738,9.359628901885117,-46.864959412322605
384,-13.113920788779978,19.252892349983995,22.194471524837358,-49.31583858098202
385,-13.748040071408468,11.494094478582156,33.33615783662117,-39.302460641719335
386,-14.229601556779016,4.791656851461084,38.0300242363337,-17.52657322993764
387,-14.022300611239189,-2.4831653313967763,41.99492773391648,10.0329724946223
388,-14.05673098394891,-10.024711557140108,40.69868856350877,35.569486251808485
389,-13.956212133165536,-16.168568848507675,28.753113148386547,52.919003624190736
390,-12.964258908086777,-21.755884977297683,14.731093452615823,56.49169996377896
391,-11.735058396723616,-24.435613329697844,-3.784198426246803,41.70044512338518
392,-10.690646034395286,-27.130146430046807,-18.621597535719047,19.582104841360888
393,-9.342897385199649,-31.03313774481649,-28.91386277426409,-2.0793479137946638
394,-7.848764868373109,-29.121088954385414,-38.81048164696858,-31.90678199543436
395,-6.764725378176991,-24.29260052438985,-38.35593423036244,-58.41375202832296
396,-5.255810362645207,-21.2141182693058,-37.13901407580943,-59.82132977633773
397,-3.149141157991835,-13.201148003752678,-35.59513358934237,-47.74116038431384
398,-1.4131172937031806,-6.396483644060936,-18.621417911099343,-34.64575549660731
399,0.1544632931518208,-1.7094473680635929,-0.1086798439373524,-3.52798608691046
400,1.858081495602164,6.652715014340174,12.762308868397668,30.445053504279716
401,3.5629418281678227,12.677698281466292,29.057737435354284,48.49899445915253
402,5.321014974319951,18.958470799417228,39.02057645706191,58.401218179425086
403,6.897154972921271,23.77695354562184,42.62824698442455,54.939715345418335
404,8.164795274165954,26.130467537237564,44.52463837084542,40.05277036147527
405,9.749481843308786,30.124439219590386,35.29010945803748,9.282083975517708
406,11.47521242478524,28.10298530410273,20.816392409444237,-20.80115944683621
407,12.16469563967894,24.18760780633602,8.37555350168077,-39.98561521417105
408,12.757280595943485,21.70632127271529,-9.457709072581563,-55.93412467069356
409,13.808435241719964,15.673071406349663,-23.50562437665758,-47.23688878864687
410,13.88543667817521,10.512237668976924,-28.592619038985504,-34.689655529690754
411,14.095126070372316,4.112680907454887,-37.98176245704599,-21.41523018133012
412,14.81977542839195,-3.1024397045721344,-42.77648270576356,11.011218349744922
413,14.342639678194246,-9.210689977568109,-37.84246326362518,34.40923986406142
414,13.781901683090837,-15.535786798901428,-28.334420511841017,48.55187606840445
415,13.070102063956256,-19.863539533366747,-12.347552428063864,59.58929845271268
416,11.82715912625008,-25.84367777265379,2.264753424708033,50.67665771416614
417,11.390259828288436,-29.643737091839284,18.269982784788223,20.88270051204927
418,10.285086929637146,-28.306628513346368,33.58921300124712,-7.256630897363721
419,8.790125922319021,-27.40497410006901,40.91876897089787,-25.343266784464504
420,7.455231160300173,-24.059823400809364,45.86792953124496,-47.21250223112747
421,5.321053231199585,-18.138601149548776,40.674390022706575,-56.2948855895811
422,3.6747911577995183,-13.216904936786705,30.115074851311874,-45.40166322853656
423,2.223407217618842,-7.729935486936483,19.18343621694112,-32.497584967054536
424,0.245448726934228,-0.9724453382978028,0.5910743666336202,-5.135549797348176
425,-1.6805097311480497,6.591404340740155,-13.015576415647956,26.34941018998597
426,-3.3643915165639555,13.094420040947623,-23.78893142450397,46.45042802484841
427,-4.901823071782928,17.82445193789863,-37.21698510098577,63.71477540905562
428,-6.419941614532036,23.7028587431214,-42.10351212443493,55.74031948066204
429,-7.909965136253959,28.417715082749964,-40.204092184509136,35.48510125598568
430,-9.531922328067594,28.48477706833455,-33.44464153282388,13.867508231905958
431,-10.880044907009506,28.8448596863318,-19.741923022937044,-22.100032539429776
432,-11.58867698211634,28.71771536074812,-6.73734233729374,-41.3650053786032
433,-12.380166565426409,22.497400374263638,6.689852684754442,-51.38739218719002
434,-13.184280174143169,15.629136735807151,23.941004565000185,-60.50477573848457
435,-13.575889131889198,11.344534411888162,35.7251046403926,-41.00300463914664
436,-13.982656719966144,5.0603906003625525,42.95506563400159,-15.245013075664248
437,-13.685675275823089,-2.652256028298325,43.73518498466365,6.252364758103795
438,-13.183949280462912,-9.34835659040982,36.07880525614928,34.34940123898741
439,-13.184165586130804,-15.174655700142466,28.175595544438693,51.469664532214665
440,-12.52680481209336,-20.797631665845984,11.567461542272213,57.90435814704961
441,-11.50880634796158,-26.566754484588277,-6.556847160514735,50.18477781693218
442,-10.627671138750884,-29.470532179528163,-18.373298314258136,25.6721193023086
443,-9.29141676859672,-29.357588478142134,-33.331695964499886,-3.7009540669714633
444,-7.675889614015432,-27.59012598811205,-37.82619501299087,-31.704215101434784
445,-6.45740122909865,-23.65802607156093,-37.77903285709726,-51.07083553445591
446,-5.07320373917446,-20.217263644665763,-41.262273070868105,-54.63385644209575
447,-3.458184490050371,-14.188441019123276,-31.878890405823768,-39.58257085136029
448,-1.6418109576407005,-6.321333325125124,-16.53097190994049,-23.566149722469163
449,0.3116790014601065,-0.9930019328267008,-2.3276413894054717,-4.015630449223863
450,1.851828521253992,6.286444806875807,13.512008901330772,23.58797599805712
451,3.742883977267411,13.820460205449308,26.42848856600358,42.31563841073785
452,5.564147199640502,18.908710266681737,37.91259703725518,53.180516692623314
453,6.901748854352263,23.60000478125676,47.14340614222965,52.096319609752754
454,8.592397494201578,27.299931188336814,44.893042867905024,36.69846955645608
455,10.04363271996408,27.854880042910736,33.478732802397644,12.0338228395658
456,10.688942486547605,25.74517595512134,19.691543555894896,-19.403431045735488
457,11.8767453002838,24.44947769894316,5.800029462729071,-43.14173660470351
458,13.326349305892109,22.604386411676387,-7.667215003406454,-51.37796731458366
459,13.435361285955878,17.949874670569443,-20.80302155616846,-57.168007545847104
460,13.727906628970231,10.602936443327051,-31.477462229882804,-49.17406068472428
461,14.286330873525005,3.821668744759336,-39.86323842248021,-15.629093361195372
462,14.049819243235106,-1.817984208982125,-38.37188443775085,10.349631223512915
463,14.150252883056964,-9.205126181243031,-30.822884202389105,32.32696819508055
464,13.542798220694747,-16.05368471813199,-25.880151160288733,55.60455550423194
465,12.494344087604986,-22.771336004620025,-14.007818540432709,51.93917230456918
466,11.904394628774751,-27.1792357901486,3.400693840922031,37.937720815190005
467,10.772042436312404,-26.337654132158605,20.067367647061477,21.343775143561288
468,9.732256307659554,-26.361334412388715,33.709539897006835,-4.536141326101642
469,8.42157277514707,-26.980183134193798,40.50925421903594,-31.604931540699
470,6.800123256650295,-22.786432807753958,41.3520692199927,-54.67868154604548
471,5.379710753692962,-18.57002261692378,36.409943135990034,-59.41445813729479
472,3.857433925477381,-14.17495757035249,26.87189423468044,-50.138586958358246
473,2.17032392222427,-6.637458911792237,16.615282866419875,-30.108699027266997
474,0.2237258538261812,-1.0367792407951129,2.784766003069308,-3.5585821724635025
475,-1.4839811106357956,5.76455745300791,-15.065039209646784,23.60062265823217
476,-3.134101739557991,12.945808770988153,-28.441808233495976,48.31625352507399
477,-4.830164261013124,17.579693426224367,-36.71308601541932,52.71568161268897
478,-6.473067147850998,22.40509467123229,-40.95915720141238,51.80952742133104
479,-8.089467861352205,24.837091652694653,-39.45466674799718,39.58356138298405
480,-9.265787681118129,26.683075584041035,-33.67364568766243,9.053617297507117
481,-10.42258917271829,28.28248899058872,-22.187816013378324,-14.67284506375472
482,-11.972767799054964,26.06005575862946,-7.309782403264762,-38.25673389736312
483,-12.942708545286225,23.254209086494484,8.774777978866041,-52.86258105529669
484,-13.344743706097688,18.719326680893573,25.102079045911523,-53.66281343241735
485,-14.139782197416936,10.242759769011172,36.52321428331197,-44.14767464115448
486,-14.167196782940664,4.276112961283616,41.84664890656131,-17.453375383560342
487,-13.690063134481534,-1.8219635026125616,39.95381721398553,10.56796177990782
488,-14.105932918646433,-9.8960499162431,34.17714102323407,34.834435301797384
489,-13.484223874507734,-14.709214937302022,25.02861802264488,48.8496300063689
490,-12.337366724457752,-19.285946944224637,11.351938725869331,52.022023481999895
491,-12.31187156248052,-23.50107661508082,-2.376290404559768,51.09121724156103
492,-10.825405488074466,-26.350512160431208,-17.66504920995976,26.35024278277342
493,-8.80795592918821,-27.63737800524632,-29.47570696986986,-7.033903774441569
494,-7.868624625353732,-24.968267657260185,-39.27775023943832,-30.00460904301781
495,-6.342806713390928,-23.27702957845304,-44.24298106895185,-55.70710012537438
496,-4.977478461194551,-21.83669729219855,-34.09821305394871,-61.239790631041615
497,-3.3732444614115598,-14.40508646221224,-26.45388833081779,-43.17688171550344
498,-1.3337214615721678,-6.843645261088568,-18.85391055202126,-27.25917332658992
499,0.1152911280451007,-0.9234728478631952,0.2279022850962064,-3.8293575053503446
500,2.029768508775305,6.764125294514997,14.449972009901105,27.017986596600167
501,3.918971877321383,12.841151145041296,25.364388183155825,46.5899191796816
502,5.3884248249887605,17.919223976260582,38.2626179371764,49.46047810214986
503,7.106703849733094,22.942265936087097,43.830218299712215,49.132064947457366
504,8.670421442260704,25.997887768099645,41.006303721411314,40.30167041749428
505,9.84412854270704,26.252670513962585,37.20008731165399,8.561934497640323
506,11.033531887653226,27.274079945400445,25.38856373194176,-15.98594403759398
507,12.342980894631182,27.890228394182486,5.3401900008902885,-34.09805305268674
508,12.923013945386629,23.9016695517048,-8.464249486441986,-58.54919949747273
509,13.692071020919684,18.625261878059064,-23.02217033322995,-57.79746871646603
510,14.429151036119949,11.70522525789329,-36.625302522694255,-32.86940958937521
511,14.221377766574731,4.871783849017447,-40.78487640903131,-12.326474075707663
512,14.447125019851228,-1.864723471700927,-39.26712050852257,7.871787500429491
513,13.785558830371883,-9.759992195238738,-34.73272791192812,33.55597761739409
514,13.227146691318922,-15.085167062186883,-24.418985092646835,45.68840902644297
515,13.36031111673583,-21.332562155731463,-9.82369106743954,52.825662125431336
516,12.093757601776815,-26.66610055322235,2.608730896341513,53.42161508962454
517,11.198257287753222,-26.34038524907919,19.307050843427533,26.874645602145392
518,9.747662610128828,-25.252092536650707,33.619830214518515,-6.024696739128558
519,7.987569370066922,-24.696365560226692,40.21703718325989,-28.550741433440635
520,7.248701493674162,-21.88469911226275,41.45275747136293,-41.59415957520105
521,5.613877172136199,-18.460736452304445,36.501872981792985,-48.396569566469225
522,3.9498043328130734,-14.479954170106794,32.327527977944555,-45.27661673862804
523,2.094347595288127,-7.735369965076643,18.840472264797427,-26.726962294472287
524,0.1023346826714259,-0.4626923746209286,0.5718625498993788,-5.086282778293025
525,-1.3345437169609795,6.529942012930405,-12.47629684763433,25.0219117613633
526,-3.2907227702507957,13.079471498987914,-29.62238652233009,55.6591671693368
527,-5.059349572708015,17.52932853285256,-39.07349329489352,62.592561873343584
528,-6.570354574908379,22.339818629781803,-38.26688911265228,50.15398476163318
529,-7.962164671261235,27.28598957910981,-38.710007106991725,31.8123436925016
530,-9.338640868943912,30.12443254275149,-34.94740618515425,13.605793819238896
531,-11.09549050606438,30.11822479130205,-22.16616813745713,-17.313783664669245
532,-11.696452486288765,26.56653673744131,-6.089321019080671,-43.01596999009871
533,-12.130914949934777,22.458858413185222,8.312030179247813,-51.417970909695214
534,-13.78570617585956,18.449410711214117,22.388384819149,-56.36562664000303
535,-13.825236316569317,12.098452924945375,36.34354054316736,-37.15747501163514
536,-13.227545105202807,4.783233999498407,44.66933788852748,-13.412205252155218
537,-14.34223691023726,-2.2328343165872866,42.98801445412846,6.218179778376907
538,-13.974439222975889,-9.657906917685068,38.58108702470327,35.38472337213898
539,-12.889916321908458,-16.627395630594037,28.64281151237537,51.12532770202597
540,-13.093339646710774,-22.36751389816345,11.871835716151509,60.66517321154606
541,-11.87650432252576,-25.83344704530373,-2.6499068911680297,50.33845979188118
542,-10.46728508797787,-25.92923856449761,-18.71659325098335,18.93671356991581
543,-9.75888280125946,-25.41775475194845,-31.8009426408089,-3.563610497115405
544,-8.167321805271058,-25.48362046385409,-40.49588549820146,-31.0488853616489
545,-6.67423577727277,-22.939881526951467,-42.47750985413586,-49.97674911912327
546,-4.93217057700349,-19.087167446946296,-37.64657621155402,-53.21384570063583
547,-3.11466939427919,-15.529621936755577,-32.7184551774244,-49.50054947351964
548,-1.7308661126553488,-8.099472182390855,-16.702137805473285,-26.95345781702781
549,0.2159243104688357,0.1215748052181879,-0.6019741230757063,-3.592746097779127
550,2.175634435030588,6.0763387351044,11.89033448531518,26.280499824513758
551,3.882117834988094,13.29547066115174,30.869845278486537,52.38413257224238
552,5.448114945374982,18.419693977572024,40.5954933214116,49.903330546007055
553,6.93336587210797,21.319518899829745,42.638813144256346,48.47443698566167
554,8.766727975187678,25.223165249266454,39.79923190941372,41.9658021819032
555,10.280426818782871,27.48116810105512,29.02064367706589,12.003341359387376
556,11.241218028922958,27.608867706601814,21.22475958379528,-18.271800820792123
557,12.197113601057936,27.36808087112513,9.4361331308628,-40.92251707011928
558,12.945742156331107,24.30738624044443,-9.595609855344264,-58.734438143964326
559,13.373340647507575,17.478298708810144,-21.260596645368423,-57.731277234353
560,14.284985992620932,11.7256587025704,-31.740394464633027,-39.07441049226964
561,15.101190905394104,5.500739404893466,-43.68808016862658,-15.543335079487406
562,14.67967834085539,-2.7364822170875414,-41.68630716535972,10.578473984447555
563,14.365366877762426,-9.146856704306629,-33.2634719992584,34.58702378743328
564,14.42951074989287,-14.872274012875096,-27.110466101302336,54.274426132172266
565,13.3543503310284,-19.745109441096247,-14.353430662773462,62.72759615015457
566,12.055505308439024,-23.62396256909597,3.0331565236729148,49.36062841760395
567,11.333744240128,-26.48502700946483,19.529571776140983,22.953098150348524
568,10.001158519380624,-27.546329932878507,33.29613472674191,-4.816330728713183
569,8.399894182179196,-28.889382393738742,41.00650953046261,-33.649502250146725
570,6.96439831673888,-26.26526954912515,45.697568735888126,-53.90291976861772
571,5.399672812409335,-19.9317617706065,44.56516590748743,-57.63156878068003
572,3.8833713803705914,-13.819022560635858,33.207046388423805,-51.8010152828474
573,2.0912794841769937,-7.381224784026017,18.438205944611585,-36.39626812678671
574,0.2024530329344998,-1.374300914260857,0.8701724851316612,-6.035407066868174
575,-1.468433114781874,6.096163448145489,-15.049415634452089,27.721490557184552
576,-3.174514189033289,12.624967840660249,-25.58616626103594,48.31723795780909
577,-4.924041422043956,19.15931935621211,-36.7795443819241,57.51247120875087
578,-6.400023345611771,26.298177652400227,-42.08543678659407,57.25902763954036
579,-7.645639346683311,27.588920287117617,-36.984710479385285,35.33946691602614
580,-9.028553485336488,27.009016516001797,-30.79195086116215,5.841357088193036
581,-10.418507943147231,27.36680580318989,-24.033660714120742,-17.719398809274935
582,-11.395403842318956,25.79178066393524,-8.01830181288733,-47.471213087053
583,-11.929973561607769,22.01063730174428,9.575894872099523,-61.279081219757245
584,-12.438779427759073,15.910092245733722,22.32703663168195,-54.59920485093062
585,-13.00397559224075,10.631786294119593,33.95263551597145,-40.5808198967934
586,-13.352857591230531,5.281245944838702,42.92067657610278,-14.784303643941712
587,-13.84314532110966,-2.9913957447170105,43.79011561046627,11.601656048494078
588,-14.146516429008445,-10.003882119761329,33.12398008742002,40.477320748581405
589,-13.527658199586767,-15.375638664403596,23.27740313378672,55.52344777354392
590,-12.893942205642816,-21.5090383741217,11.720443981990684,54.8881107953639
591,-11.989980917744106,-25.80713014244975,-4.863867450846556,52.4264961494946
592,-10.730631643564266,-27.78207986143116,-18.11231538416905,25.006398307980817
593,-9.546849391910657,-30.05003655743076,-30.849482979856475,-3.875407450144849
594,-7.699252854692531,-29.35079724667321,-37.00251681091413,-24.82459268499497
595,-6.453807678719386,-25.26440258869661,-43.32098934317583,-54.39867094315287
596,-5.320800508086904,-20.78845013214232,-45.39226191987928,-65.0320853426756
597,-3.3133710514257477,-13.427125383085697,-30.427349522177792,-52.36710816693631
598,-1.5972768369319963,-7.240571774983437,-16.620353008773236,-28.1319699583828
599,0.2340763744978176,-1.3613046775044495,-3.152114890066059,-2.7064624140275555
600,2.0372991161057143,6.944581577989993,15.604846823637216,20.44560277327037
601,3.729079939552321,12.359271604894277,28.21719196692402,43.97232080916456
602,5.672234638226655,18.21884697439873,37.03629210931422,52.230677080374335
603,7.255044665602327,23.68130194831156,46.25616013106173,48.08321490519211
604,8.76239793500099,26.781667625641603,44.19087246319987,40.4285596991158
605,10.246122738337364,30.174393575117392,29.930822973485192,14.103365212162316
606,11.32014793811686,28.204215212237614,18.568679488208545,-19.123750162819302
607,12.180276776169194,25.33072765997804,6.292617739147772,-41.00297302029139
608,12.92717882753277,23.964541345885664,-9.90588719791549,-51.393337896112826
609,13.537320035011362,16.69097968054757,-24.287758311183097,-48.77160771601757
610,14.12578563860552,11.503865166017022,-36.16396508830667,-42.12517348687288
611,14.91925272034132,5.796991873477055,-41.60961922871047,-17.76207586821147
612,14.967558300795645,-3.693785933788604,-43.74559874384113,12.158100543561886
613,14.459428870661212,-9.14124876051119,-40.609591914084376,33.00300821129531
614,13.70779858939386,-14.934358778520618,-27.75654551540083,53.89200086658548
615,12.494940665850663,-19.064104649769437,-13.390376272033336,55.56476295262473
616,12.38278255626028,-22.53025508788505,2.611840550491252,47.56437072029075
617,11.67626103220391,-27.50146936026522,20.233397795250767,27.1023736679972
618,10.00091572225938,-28.19220266265711,33.30684915069696,-4.6694804911485335
619,8.770422606687134,-26.82595827440946,41.50697645100672,-27.32840409846904
620,6.863410477622892,-24.661806971137597,41.83683007242962,-43.4784387837999
621,5.137073469601091,-20.27427469229133,40.06286196072051,-50.84377769727507
622,3.738090069286045,-15.139798954783146,35.48744457225075,-51.6192639291894
623,2.159736179637548,-8.084570241459915,17.751149682115283,-32.516890912828785
624,0.3927676074217743,0.4545641763870662,0.208087101938645,-3.797858647798421
625,-1.5663003896852388,5.991534555385442,-11.777781804553795,20.01731093485887
626,-3.227227260627842,12.593577384559469,-27.42837073844771,42.76517431929733
627,-5.068533245295839,20.23929263017817,-39.449616261283154,48.04407682155306
628,-6.565139890244609,24.49209670686014,-41.352225805863554,45.42211808329557
629,-7.880656753511175,27.464529424580174,-41.43228751877882,35.14369904327941
630,-9.847347683811677,28.73537676020624,-35.779026383250994,9.623990441449678
631,-10.951900200560884,28.586537639278504,-19.03224872535793,-17.590053244322007
632,-11.550432114613614,24.65025836714267,-7.287991244733575,-41.88944627641831
633,-12.661095660622776,20.98059459650904,6.68197826776327,-54.23787148573956
634,-12.98001819439287,18.633013802163987,24.46262298708234,-54.86783277742143
635,-13.31109965239557,11.183862316742308,33.22165759744803,-41.59347248189442
636,-13.779428377427394,5.2121833309256544,44.72037134813081,-16.881804028319493
637,-13.529181624144258,-1.7213368767415886,48.87202561965114,8.222272355052155
638,-13.699196028089318,-10.433798487882996,40.33434864876608,38.60901462170296
639,-13.327546952769808,-15.62217609597792,29.30412448987772,57.65479100323046
640,-12.545634941212484,-21.876645452654884,11.86591390929584,59.58748239049419
641,-12.010273606385454,-25.724377196048408,-4.544354382484698,48.4168853946876
642,-10.439041792865282,-25.745393756207704,-18.791795039004512,20.38454228326464
643,-9.09437260320192,-26.26584196109343,-33.42228019729487,-2.8132109732878234
644,-8.206726725511544,-27.146432963807456,-40.72295930660477,-25.552450827022767
645,-6.623471890827204,-26.340022199206945,-44.34716960772215,-51.428119083813726
646,-4.81465830700472,-20.567066261617583,-41.48121776239236,-61.55118044561823
647,-3.3851072488196223,-12.98662516038803,-27.20258497826711,-50.98476763842064
648,-1.7251750242257913,-7.787412959868561,-15.624654225516366,-23.969457415626493
649,0.422957408608454,-0.7756039359883289,-2.973881441710745,-4.304686086911715
650,1.975097891418045,6.975265979514006,14.64345304398131,20.39263716524056
651,3.5628648251522463,12.629411938592057,28.30714958943925,46.72103708630766
652,5.354071758880309,18.039916429182995,39.67574110572818,49.351527033892125
653,6.925769239611327,23.374172283682128,42.0493560511171,51.68639197079574
654,8.68883799890591,29.011350334333656,40.91456870242624,36.98175821678069
655,10.0911451608481,29.232460612724022,35.69724456614631,8.304485191492859
656,10.93721198508956,27.21482956345244,18.79013657643304,-15.86459637754615
657,11.829568188470148,28.06472639848107,6.047628041953999,-49.01363100911294
658,13.004357678882116,22.89668943691868,-6.592181003229825,-59.07033281866188
659,13.469504778940063,17.253368379598214,-24.391163811966067,-52.16729921994192
660,13.568916358927709,12.602578274283587,-34.17374456862444,-44.46894115714804
661,14.187518030409592,3.724092933829525,-38.08851359875507,-14.738178149529633
662,14.014506746580992,-2.1851166400965667,-44.86622708420282,12.507683900825214
663,13.84555399717101,-8.940777301017079,-40.17200624238762,31.634281476112847
664,14.415590017112663,-15.940845693515255,-21.991425079405644,48.49884961031876
665,13.58261986835896,-20.73550098059877,-12.16861495854073,53.05647800394309
666,12.035441048207758,-25.96371193230334,2.1729006150569603,51.2999300707188
667,11.178637427025023,-26.565534449587176,19.608817801804207,24.92728075818104
668,10.160014750477783,-28.368595706235283,25.49618820250976,-6.168525899021915
669,8.691807682239414,-29.011199759659576,34.776671305316086,-23.847109061206535
670,7.133983779714072,-24.108442725844725,40.86062230584389,-49.33119551105028
671,5.641662762322994,-21.0704077733144,37.83147450412048,-62.940899874037314
672,3.744907266572227,-14.38165677467532,29.331592668165516,-51.64299632300754
673,1.9210236918261216,-7.190134279210724,16.298765605411518,-26.93903558655529
674,0.4328921724145402,-1.747977889500362,3.789646159277481,-1.7105343664798056
675,-1.5460962079278031,6.509451884127884,-13.952776249829412,27.49190625616848
676,-3.4369838171105584,12.401320847189709,-29.64040779849984,55.14421712590138
677,-5.02232968442695,18.883359465181456,-36.22408844126858,58.158736066258825
678,-6.77200096544675,23.821910861940523,-43.21579050960736,50.46417108494643
679,-8.125256962764979,26.9782678537058,-44.00948401549158,40.04372271694047
680,-9.16045227136783,29.71854408823674,-34.451098490470486,13.879544291456114
681,-10.616226605407974,28.493905562460892,-24.38462640582748,-19.84498155805977
682,-11.758758199605836,28.27629942900603,-8.190195147255054,-48.42612026588267
683,-12.560907472606232,23.18962153544089,9.823795455824438,-60.62246623268311
684,-13.325372983183115,15.664326096781224,22.728189839806877,-53.73729081397323
685,-13.11380971998824,11.895051764218806,38.36124103260772,-44.17181838237138
686,-13.65355137549068,4.221750645942848,45.87685644218527,-23.03792969639926
687,-14.422888450852042,-2.771564699285591,46.05780794267503,13.084313259980265
688,-13.442869124115532,-9.278966927387955,43.00857764739612,36.51589542295551
689,-13.205315801489633,-17.141688952656295,28.04235706901045,52.58452885109728
690,-12.767781838818337,-20.38466668907131,11.308218925888012,61.77968525644974
691,-11.246840482755031,-23.071969266847645,-3.231226365826842,46.25931390288861
692,-10.8465970650077,-28.10025944769768,-19.50479422708986,21.672519966959957
693,-9.79117769878394,-29.97357985561166,-33.29844621976281,-0.2359710979944793
694,-7.962382756739316,-27.05372884573808,-41.22643584613206,-27.72611352610693
695,-6.812695797475499,-25.95106969068638,-43.80259672403599,-45.32838104340863
696,-4.885555082686551,-22.68072935107148,-39.54445593516948,-51.45926351751859
697,-3.0429365920272176,-13.874874482249652,-29.222402175804746,-58.28764635902917
698,-1.7452362784615616,-7.155538675516254,-16.914798793147384,-38.203383827916696
699,0.3052745214808965,-1.017804677291224,-1.6794558153533217,-2.195660709895492
700,1.9738112817431104,5.943718070076557,14.07618974447405,21.342608890515294
701,3.5879913375074466,13.054426979501386,28.56904533361512,44.04494714048815
702,5.438612488939725,19.05804994023947,39.0731825705202,53.38054874469981
703,6.915499212133,22.84026623538557,42.52432329155226,46.85148417037362
704,8.791075282472775,28.20472052478908,43.20594839820842,37.65100304135922
705,10.253969703492658,29.06422003584976,35.62903859654989,11.189089302272803
706,11.255045014021562,26.01268461674317,17.59860980927442,-20.622962982455647
707,12.52069123615729,25.852645167519768,5.0364949389900175,-37.514299342464255
708,13.333352606890005,20.85270677080825,-6.665753023717116,-50.44407692847835
709,13.439926758589536,16.239441476058346,-25.788092529250207,-50.809071105927615
710,13.8276075802969,13.547537399354042,-36.98249215483975,-33.006111809850154
711,14.534602084012477,4.458785769825681,-39.68672378129304,-15.603863572078808
712,14.101627204948272,-2.8781037054636727,-42.2228599345226,7.686624804839994
713,13.727415490513522,-9.59046347507774,-38.941292975133365,41.14411684976767
714,13.606133519293508,-17.100803476069814,-24.167745106559774,62.095642944815154
715,13.001612559458408,-21.10304695264904,-9.833750806646094,56.22411124388691
716,12.400265934899837,-24.61280336545224,1.2823117361149343,37.09872181481569
717,10.89027074601563,-26.26698833851833,17.967427336681794,23.522806529405894
718,9.867813691418633,-26.400399772833225,30.87003367293164,-2.284778378470037
719,8.529299961666766,-26.8468178116741,36.00239307762877,-32.982397355354806
720,6.416671478332319,-24.687559787194918,38.49775426047927,-48.492454843290034
721,5.336501234525713,-19.367237178970758,41.07222471120713,-65.36118513262863
722,3.59010223790483,-13.968753619460584,33.408805104382736,-53.81110291292589
723,1.875869736392815,-7.726756239064798,14.853400799467636,-19.661588360299906
724,0.3508438847538855,-0.5565918483321184,2.337713616142537,-3.759583861979081
725,-1.692684590247154,5.749323453200759,-14.209961969998403,25.294660183622
726,-3.275673165347144,12.325828277373605,-30.563029714138796,51.72464402653805
727,-4.959892851751647,18.29977465298134,-35.35132336564311,52.1318427806209
728,-6.455474894043618,23.130739576933596,-40.38638993129189,54.70951046447863
729,-8.008513509535078,26.342032823479254,-39.52926714226305,36.180284372188
730,-9.723677085249165,28.236705227471703,-35.37345624436148,5.626707338100459
731,-11.065014922106911,28.004541953734133,-25.942844594000235,-13.191242625321138
732,-11.982447091439552,25.661601596372748,-5.619304514506439,-37.948826263527735
733,-12.46963453229364,23.478819546109666,8.208938759506964,-48.680904521746015
734,-13.212598553345288,16.805242595668005,23.249948463646437,-51.99937009573205
735,-13.729020242693425,10.597774810378269,39.54628658350066,-49.0242950331558
736,-13.957825261785274,6.286674889985989,42.25714047391466,-17.368221515538607
737,-14.017883049732063,-2.9716209502194038,39.14936185148872,12.9589057173107
738,-13.533161336594276,-9.87619270803816,34.67212796126205,34.588276643469726
739,-13.09806831988908,-16.22825465959295,26.8208443051617,51.718452718821936
740,-12.671501612357588,-21.58986509103352,11.26196886204707,58.35080576274322
741,-11.728797102724002,-22.70094350641148,-5.843125474814769,49.41189516503255
742,-10.60997090268529,-27.035025382239382,-19.926337243423404,19.284108627387468
743,-9.758875457820524,-28.496372214068742,-34.34638224110768,-3.694570043651765
744,-8.45900150870466,-26.20433253707733,-43.12019048196635,-27.63713741587253
745,-6.75752805329148,-25.063258548380414,-45.80777534206845,-52.25177639503545
746,-5.12456287059058,-19.823117819274103,-39.79657054044674,-50.00751892006701
747,-3.324932311195425,-12.706919971488333,-29.48818129171559,-47.77951128849236
748,-1.6627748517603322,-7.600119563683165,-16.587405697728173,-36.89445376503591
749,0.08518740968384,-1.122821144592308,-0.1258325987255375,-3.6955519316188656
750,1.9757023817364825,6.615092158320294,12.649253244654574,25.15888153565993
751,3.572500509640122,12.691870329276751,27.32524925758935,47.662173494806666
752,5.28332588639023,19.35477487167327,36.74973979318747,60.465626562096986
753,7.054655884991007,24.57762511659257,41.65599338362608,53.661453686549066
754,8.372052024414643,26.90421967774228,43.01169809044586,30.577503730164608
755,9.754821333232483,29.302014691943896,29.24597518112023,11.243252647962436
756,11.156217224811371,26.880131653942044,20.27069830575056,-13.339110080499267
757,12.098221974284115,24.08932216885933,11.103434367394584,-44.76959030331364
758,13.419968224771765,22.846176594421195,-10.80497855635167,-52.4938454456169
759,13.832536145307133,16.67593771109796,-23.250988729247183,-55.18501608604038
760,13.738100090567514,11.3607282488706,-31.90190990033807,-46.66543716037904
761,15.021230048308098,4.833539669659785,-42.23011864780892,-14.92910255199422
762,14.44570934427611,-2.96320997638486,-45.248237571821846,9.645485035890488
763,13.527625515408545,-8.557578006631275,-39.27776834076576,34.578191459931986
764,14.477840793569158,-15.79083451130191,-23.710352375232105,51.24899383400498
765,13.287784630681472,-21.223063195271607,-11.391179390871912,50.59347831277682
766,11.770140691467986,-25.841116086160127,1.34609248671768,47.57121576697318
767,11.56965221713972,-29.07450326313119,18.79401976265399,23.42113265693933
768,9.99886892603172,-28.01852454937466,29.08932920434017,-6.839655134187524
769,8.333783694177328,-27.81258860848766,37.91192647593471,-31.78832277318816
770,6.946768972602968,-26.12281914840128,45.86216456299371,-56.15491435025433
771,5.218368684747475,-19.826094359714038,41.54246595688619,-58.67360757763345
772,3.824757738543212,-14.171655044919817,30.295703962849075,-55.024319768222085
773,1.940277491736197,-7.850089288395111,18.93450593504167,-35.14043908777512
774,0.0813272608065744,0.2408047875946977,1.7637175823883808,-0.6236673313860592
775,-1.4736946604334662,6.458702006785643,-15.602608636885634,20.35185469827593
776,-3.347317207278593,13.484783889800156,-30.13012400468324,42.92507995349115
777,-4.936859592168048,20.020868377481747,-43.05596013696413,58.87571799624493
778,-6.625176461367801,23.544799973973795,-45.41658597054084,54.86159781212245
779,-8.28435108745748,27.04654014161315,-38.6756252635314,33.341529677145445
780,-9.49905943463432,29.34977583505656,-28.66151777561936,11.032758675203697
781,-11.06547465603944,27.70866213286058,-20.262883345019876,-14.792816712285456
782,-12.218668685819694,24.41212861708277,-9.18379207970429,-48.40769223287589
783,-12.657647115798907,21.865576197606515,9.611283016038216,-58.39423981993696
784,-13.4307357486515,17.519104892639007,24.24030450416103,-58.12453059747713
785,-13.947124889581689,11.086806612654073,32.60921466469699,-49.73377150521264
786,-14.040233539729345,4.912609304905345,41.38705108342037,-18.82479389573109
787,-14.269031764153963,-2.040808957633317,43.60906334992069,11.888838784811014
788,-13.774584315165043,-9.399310076011488,35.5780062993872,36.67955475584222
789,-12.83093329626888,-15.658964009709962,27.58614360501815,56.07309004129547
790,-12.652994018572713,-20.5775191341761,14.06055796757937,61.70730846143215
791,-11.830518362855514,-22.631084096142672,-5.253433150655837,50.87284961928253
792,-10.492381409514792,-25.47021281425154,-19.3383742537917,27.0722234341074
793,-10.108290792822686,-29.242218362088963,-34.83422953036825,-3.672787698511456
794,-8.685524351535037,-27.25160741885296,-40.77861981859133,-33.13819134565438
795,-6.671081404704751,-24.14393389791892,-38.60505135242602,-54.97349833565932
796,-5.179473828540608,-21.25762787442384,-41.89391473406067,-58.60683746005816
797,-3.149634259104687,-13.909441840197315,-31.57044161563499,-43.00032285391353
798,-1.62237079450108,-7.167104720497349,-14.822471256773497,-27.737783426478927
799,-3.0375628966794466e-05,-1.0350933893144685,-2.3835220818564267,-3.4668185722402995
800,2.0416381899724456,6.5105646643361865,15.470067851578278,28.83590095206273
801,3.565472424280188,11.964646266046373,28.686300176028453,46.26532286919701
802,5.261910476935782,17.219214091929075,34.83564796995961,59.4010859688442
803,6.9171580022941725,22.48363315491497,37.244358716106944,62.03788338544473
804,8.38456390803708,24.731885839477115,37.20888667579493,39.449295818390965
805,9.85610010907476,26.18297001567436,33.81643047936814,11.234307576404715
806,11.28585610906589,28.16708650921919,22.05168533743017,-16.744448704198476
807,12.08619584432904,27.958295902156863,6.894339381526152,-46.96383965248788
808,12.261193379624956,23.521709878976765,-9.118623806241883,-61.52918371277701
809,13.145090661447284,17.54225305618985,-24.20975809902484,-56.01538064382749
810,13.842215842315,11.484848300604456,-36.403513559591374,-40.528080677794605
811,14.033251623613978,4.393506677267737,-45.78510198383447,-19.07491900889454
812,14.718370138513135,-2.067508702125906,-43.53950973688734,12.077971793482902
813,14.191065988079572,-8.683157236247666,-32.60224326651405,42.78751361164359
814,13.140281094415514,-15.105187119485777,-25.04751625300196,53.91863225873294
815,13.004252097742778,-21.234681733085157,-12.711378488715129,56.03467964475931
816,11.949545559120908,-27.19761519640258,5.45865482589943,50.587855105291055
817,10.719087414286378,-28.696823210421822,19.15279621508489,22.212879348834576
818,9.809744413056478,-28.00456710272329,29.52001374489373,-5.977545448521596
819,8.540363135230677,-26.54229741713721,38.89979826066883,-29.099910560721582
820,7.131250329055035,-23.06137649245875,43.770621530724384,-51.92111004460094
821,5.240797617443349,-21.044379662020447,36.50437400530973,-50.34980161962176
822,3.572155209579193,-15.898726506467028,27.076672684615914,-43.39387323401388
823,1.7807131833426126,-7.509160130817463,20.66370217615986,-32.85917262159819
824,0.0030698457817948,-0.640496326652169,3.0065506677201483,-0.0150597650708732
825,-1.4731006260840331,7.116668145508584,-15.293138846724103,25.875452259143454
826,-3.390965329732353,13.490862683855426,-27.66136669947082,42.39824132768717
827,-5.069951731083847,17.85589987534081,-39.15696631508217,57.34475205383205
828,-6.520977773291975,21.51010549395403,-41.68185341532262,55.58393796014025
829,-7.988705474308972,24.57443566077734,-38.90044762130674,40.68376850462664
830,-9.334950907695202,27.65816265880858,-31.771878076076973,10.359720270206708
831,-10.44257540521653,27.690255248479502,-19.34901613968032,-22.72370409399809
832,-11.617467727012809,24.400374236319976,-6.56249402157664,-43.6327506960115
833,-12.648699090523678,21.66373081139181,8.821244144010052,-56.60160245398765
834,-12.889580334976928,18.03758250356975,23.773218881789944,-52.753071593188906
835,-13.401058158746991,11.085787903096616,36.32423889343045,-38.1523064694793
836,-13.660541453582027,4.872046834817411,43.05772879335018,-14.12163450731896
837,-13.681931653052745,-2.014704404721897,39.92627299772357,15.212588357426284
838,-14.068471118568596,-10.21537871715691,35.65066968177962,37.61689922658024
839,-13.285090022187433,-15.72713304277636,28.38636958792449,53.76730908562877
840,-12.457333763059523,-20.93203385065181,12.425769718713129,57.210592064590855
841,-12.12605529614666,-26.12359546509265,-2.7940453943811008,48.42255616912189
842,-11.079540195265054,-28.08590052331442,-18.78520968269549,27.123611669204365
843,-9.603130200015585,-27.265797764845047,-35.08382995699867,-4.771543636611568
844,-7.905508105713125,-26.335671187520347,-42.23667666745314,-30.940659773371408
845,-6.589850275430308,-24.60531217742573,-41.51391215082003,-52.06026116877638
846,-5.160904812199078,-20.638504045937225,-34.654453665929395,-63.564615588044944
847,-3.1834136207344272,-14.60749126576684,-29.04398995547672,-45.18945198761048
848,-1.675626191898118,-7.066568365915828,-19.18722339384294,-21.80367336959625
849,-0.0696244015700813,-0.6554498761538525,-0.8665822112470778,-4.613306904236197
850,1.9235525019039412,5.9627938071089375,13.479317966037344,27.18289865430688
851,3.6013521255749765,13.302261643213797,28.84359845383915,54.9451537574696
852,5.243004331238808,18.24533009967854,43.11147705772419,65.0774741773912
853,7.057895493228671,22.9748841984283,43.14963672076192,54.4071534727882
854,8.55975205770551,28.75268539777653,33.87278946933657,29.87722819629198
855,9.868560282297494,30.093858706249648,30.189591892736644,10.79908028817954
856,11.372278049043189,26.302372935366748,24.01759149692043,-16.09593491852047
857,12.102901155152722,25.02398098582671,6.562927760864113,-40.72817187508008
858,12.830791702735723,24.34695345695104,-8.895636319506593,-46.69768116605155
859,13.83202235630256,17.72440334936914,-22.37184140264617,-50.0221634257241
860,13.613987664247816,10.495649948599976,-35.13945296439488,-37.18550689914264
861,14.333581814042418,5.370788745754908,-44.67427711646269,-13.26752903796114
862,15.177702018279206,-1.953658467251444,-43.13228199809237,8.15383844187454
863,14.06756411966353,-9.557313984827031,-31.663472642710985,36.32753338850944
864,13.2269687754806,-16.237075008792544,-24.02553028240618,57.50861690641523
865,12.492587069782983,-21.941056479889998,-11.491714369503825,65.8580385368823
866,11.865139657691998,-25.50649428195902,4.986863792373697,50.2882610538627
867,11.3944880543213,-29.540636032864317,19.854582883133844,18.36061464708655
868,9.766767784052265,-29.2338066527218,30.696086057005232,-4.68584163145897
869,8.250263612204435,-25.862839688106305,37.39966911540069,-29.737594153384634
870,6.940085174538581,-25.19837141696462,45.95061387223359,-48.80641202624156
871,5.136537173373199,-20.42246510708128,37.57843451184272,-58.06720430099631
872,3.5933067182368177,-13.790263432946176,25.536358199817187,-56.96328948983546
873,1.9593088480069127,-8.540350201039473,21.486381988581343,-29.51912960241043
874,0.0461439444529787,-0.5862672275702607,2.129458155777684,-2.165199780720286
875,-1.6754312764337556,6.662537774343491,-15.318328399916936,23.137857305966463
876,-3.4176565173406743,12.957691730664465,-28.266455473980383,46.485162852655776
877,-5.143121606335171,19.12647984230307,-42.07543142354734,47.99996270003976
878,-6.520875232883554,23.48972467058138,-41.342539628170925,53.15242591525566
879,-7.846420828605915,28.2679944543047,-38.26663114305484,42.86978856424457
880,-9.43906953586702,30.36053397695196,-36.21265322615727,7.22323739873309
881,-10.674293733633933,28.648494857436617,-25.48415111295799,-18.30266405001385
882,-11.61157151907264,26.9371192305066,-7.628422861798754,-40.49562911941848
883,-13.073770999911176,23.31954894754881,10.433313062734667,-53.49534091195165
884,-13.62593995331099,17.60017326273237,25.22992889494708,-54.22266457783872
885,-13.051220924863628,12.13955838125412,34.081030737726905,-42.454685487165534
886,-13.74070115397808,5.4911444170788855,35.592129038092025,-16.126298266852245
887,-14.368261933710528,-2.8253162808991874,37.40088165337329,10.359534424148023
888,-13.694399318227624,-9.609289256305146,34.67496700378615,36.303443344022526
889,-13.584730540035707,-16.088739961340252,25.430900436764205,45.34585737345196
890,-13.140594377688103,-21.51245304029453,13.313981842980866,49.02750433141273
891,-11.56913773936776,-23.592224228737905,-3.350566698201874,52.11618100320811
892,-10.31093100391172,-27.221702916870527,-16.770264733677323,28.26262478197259
893,-9.498503602555502,-28.15092465961243,-29.86132645984253,-3.324390343086634
894,-8.608685900057935,-24.22915474935144,-42.59757904887374,-32.011735190997115
895,-7.005072216706139,-22.68567488076951,-42.58997211950373,-57.73346979644202
896,-4.994835338838129,-19.649211083874437,-36.6367128734837,-60.56171491783789
897,-3.379141659690504,-13.734308799294013,-29.660937843358624,-44.43428387723748
898,-1.6636548287924595,-8.012738956436806,-15.432354287882845,-30.8500105305468
899,0.0947133407626097,-0.2525884476954161,-1.0705613960835765,-7.750951062487502
900,1.728873386916348,6.977673275405323,13.445084005345052,28.771079569183485
901,3.5874572772127067,13.438746260863354,31.04910916141489,53.61155579927845
902,5.417450401038877,19.741842209416063,42.65567559048577,63.712802623780135
903,6.912272910652064,22.376284236975152,43.07074182873839,52.15214335146902
904,8.012626299063413,25.506409098388303,34.270515465017525,31.80527867888736
905,9.575016285024503,30.01585843240946,29.357505322370343,13.771024386724775
906,11.401882725169344,29.242868191869547,23.61115141371556,-16.38052886708897
907,12.166400844556849,24.7162464445355,6.877319496174096,-42.94396088503777
908,13.02708344868006,21.117526033785,-9.18286553641883,-55.27011390352664
909,13.836320062827326,16.84881716543623,-21.89267086057407,-54.39724929991348
910,13.716623618290214,11.27715125981831,-34.5796423203501,-41.34622568963323
911,14.066999140416556,5.142716903284054,-42.340596962703785,-16.526863115681635
912,13.918744134233748,-2.550538057770609,-41.07752427260675,11.915081421373088
913,13.392345556007967,-10.221726982226755,-40.01332497644034,34.37678317826726
914,13.5984440059201,-16.774282352617774,-30.62009852702795,49.79477262952037
915,13.124398813915832,-20.63401546879868,-10.178741766856549,53.17054505083525
916,12.296785323071164,-22.8602283042228,2.3520039625418576,50.76573909668196
917,11.003834329980236,-26.525561812527485,18.346725559089464,27.244366979051847
918,9.514829360701697,-27.62904197712305,33.73616170459718,-6.57889954566906
919,8.473403179808884,-25.405692749622176,41.70916312435656,-27.32715141655933
920,6.700469775070815,-22.128184613216945,46.7043115519009,-53.779327601208365
921,5.120812087162449,-18.165067339755296,39.22305610167496,-66.27690097431199
922,3.676052523940598,-14.084750810209698,29.176797430434817,-51.62597413017744
923,1.817590645606288,-7.879516295988651,16.850826386888002,-30.96972990062048
924,0.1041568503887901,-0.7332424488567995,0.741178704689446,-4.033326666569479
925,-1.7862689851644973,6.53982995791921,-14.209551735897548,27.4673262146452
926,-3.489857063193085,12.85000843117632,-28.35404578024645,53.25406101514557
927,-5.1924839753664855,17.838316038822086,-34.00710306052315,63.44394834114331
928,-7.028875413319838,23.423830211740096,-38.71249190564959,57.57573525328499
929,-8.521194410483986,24.94253546864184,-38.68203298985463,38.98415618721748
930,-9.681569937780296,26.381848886797343,-28.592548556280235,7.196200025494932
931,-10.60243831832031,28.72686495617745,-21.331267119958284,-19.168759302317824
932,-11.571636339876932,24.79751979988941,-9.318514786478772,-41.66654219745215
933,-12.35201927340131,21.684245723309687,9.22783420734595,-56.92547981894131
934,-13.093265251462071,18.85864406691508,23.37435582728358,-49.833925617782256
935,-14.299160366193972,11.46081445287291,35.27779557643771,-39.67540876463397
936,-14.792446968858712,4.320163503050026,42.10951983729683,-18.01405425391488
937,-14.528366846192512,-2.089117629406246,40.11465217312434,11.74673525642902
938,-14.477937823585307,-9.228445171735077,37.40137400755884,32.93622049353337
939,-13.971854261881164,-16.431145678726352,27.606297797670777,50.37116103197627
940,-13.13634394154542,-22.01085188176694,10.645084217478145,55.680585137895946
941,-12.237570276161932,-25.645788391308088,-2.790633863409312,45.89016241579429
942,-10.921774417085544,-26.99574474833389,-20.10275675225239,20.410842784896204
943,-9.958424001088131,-26.82704889028446,-34.920562583605715,-3.228211264183983
944,-8.567288644182554,-26.162059951274387,-42.195225606239546,-24.32237236796709
945,-6.269495115315294,-24.942794192459587,-43.54612201204145,-43.52833390383216
946,-5.039798024667107,-20.580762379957378,-35.63555087448549,-51.55461213723652
947,-3.83056406556716,-13.25219235755958,-29.307074655886023,-58.80014647654866
948,-1.769162391183272,-8.006851485466541,-18.9606812283746,-36.448412369427615
949,0.0022788811584177,-0.8430509084710138,-0.258768420355409,1.4726443876650137
950,1.9043623569359625,7.383337342184859,13.44470949207971,24.69415526093144
951,3.588986569749977,13.427761101334,26.96881748360829,48.68439780750532
952,5.088888321379272,19.524177558997508,38.10690080255699,53.07081941623983
953,6.689820334646356,22.783988125730502,43.22441230857112,45.37155451639569
954,8.34847622739835,25.852469813886277,45.600407539073785,40.20657304256929
955,10.05480708084906,28.41533343411811,35.91081881010723,13.433466238014717
956,11.07554796351542,27.39730575064914,23.99526238195358,-18.81206759738643
957,11.760521502337724,26.01465496325818,9.728932339630774,-41.51476003191237
958,12.761923242936971,22.32730364744748,-10.551186421453169,-55.24566869668115
959,13.792943190994263,16.263936065081907,-22.42940275397632,-44.82553898673996
960,14.062971409131933,11.22842340635816,-35.78248099625671,-33.37322272872416
961,13.913809899662738,4.875920180692447,-46.72780085328668,-19.57376235524589
962,13.753074308096984,-2.6407773788469058,-41.25347756416886,14.411458882520035
963,13.80559583690956,-9.400914262831066,-33.43895504796092,39.77146698696424
964,13.843919472003108,-16.77361602160272,-27.115267021685213,54.72560534442937
965,12.630711862258975,-21.766178625366592,-11.218424298374885,59.59180338447641
966,11.894981769884907,-23.100041905550825,5.031360280057925,48.25877173568824
967,11.185593657944992,-26.54502932517425,17.235045580044243,23.555890283086228
968,9.207405532151824,-30.52472553118787,31.009174216789688,-6.967825665822602
969,8.498382393085194,-27.6218644403416,36.378396863745365,-29.387455039352066
970,7.435108649660833,-22.26260123342763,36.02443671827132,-49.65033358105438
971,5.044907286111993,-18.876801841997803,33.77302766039793,-60.22611576750296
972,3.5150763995188754,-13.360176864000096,27.121502270234487,-51.76720845238288
973,1.958625137594936,-7.448058068079263,18.600096927710183,-30.4965895942014
974,0.1019048559610382,-1.3011499290023494,3.1789901079191623,-3.5893304349829123
975,-1.6903896641870233,6.245768805456464,-14.59437343980244,21.45271921634321
976,-3.5749930154706817,12.329020930690604,-28.79786636583958,45.00922234810059
977,-5.119283876116242,18.67070148383027,-40.630697759106624,64.91298917515815
978,-6.592056542180217,24.310858476294012,-42.266518168606126,62.34454063800695
979,-8.339250716620882,27.363739493568573,-39.11112130044239,33.138708532254896
980,-9.732679617825852,30.24544374490506,-36.86884670449763,4.816152612347651
981,-10.466494596243136,29.76222995143144,-22.84655645654857,-17.339563261089097
982,-11.809431203957502,25.61308516334429,-5.486904315830543,-39.76994019978247
983,-13.398757128712532,20.98858862338784,6.75314135212102,-48.85883552472387
984,-13.956862133954928,15.76648397995814,23.735170460722657,-45.70907621728293
985,-14.27229609029746,10.860024315954432,39.92879885024559,-35.93191856643534
986,-14.409761210681609,4.421775863107541,41.53742074708316,-15.944010110531964
987,-14.275776388283704,-2.915450379212416,35.15388156609697,7.889484719236862
988,-13.88530843013541,-9.164236888225789,33.67881349851814,31.66088352283714
989,-13.19226527272076,-14.818858875421938,26.579987802602773,48.62977211238649
990,-12.95386530450196,-21.21518373498475,12.493287317220164,47.751243271210114
991,-11.91907075619929,-27.733547278536207,-2.425818122848796,35.0285956878688
992,-10.604775773806978,-28.7014652322232,-19.12197204732001,16.620028523205292
993,-9.716501316524957,-27.066052190322807,-31.21445489483449,-4.48439383931327
994,-7.774424719373201,-26.064305276866435,-38.33145464091103,-25.63423424327993
995,-6.761380665951947,-23.689738271430542,-39.74243310286511,-54.15684592046546
996,-5.78990008913388,-21.030882971012037,-40.450303151599655,-64.51527964005072
997,-3.1809512351264857,-13.976477729771432,-33.747559192232075,-42.42652522368007
998,-1.4900835302778432,-6.684310140733942,-15.261883757273608,-24.074565421802617
999,-0.1451329669944243,-1.7727143067168072,-2.4021073420390167,-3.682614527970145
1000,0.6440467931341882,3.1653758235108795,7.486073029615259,16.180152522781867
1001,2.3901416764853862,11.241417690883264,26.713889960973752,49.392006744593886
1002,4.237858245132778,18.56226060832037,41.71424355764229,55.192277448939166
1003,5.781522108047067,22.268461067704592,43.06634124020788,43.9689082224601
1004,7.124851998786319,24.855133325915183,39.11829203650261,38.42205421496288
1005,8.566406619133751,27.11773372455869,35.1992648632116,7.979762882181262
1006,10.207951610073124,25.664359504029136,23.08054274584612,-21.69659517847685
1007,10.983410446302956,23.48623620304795,3.821908612546849,-36.35135419279129
1008,11.522112650822976,22.68093760779942,-8.696176442095748,-56.23420350903086
1009,12.514762422900588,15.274453346091605,-22.088206336185976,-56.81712531270682
1010,13.09883415321724,8.795988680910114,-34.632056001617,-33.080278864089905
1011,12.873080497288695,4.967527354805952,-40.41756881634956,-13.488375564056923
1012,13.23837073020161,-4.247471174927796,-46.49906441686494,8.186247210442843
1013,13.47770982714485,-11.386223468287652,-42.16469041294545,37.57187427917552
1014,11.802745331630376,-16.92435136653353,-28.21292732814936,47.14172798693289
1015,11.154474695173576,-23.056431920147133,-13.067520697952432,52.93992130682409
1016,11.180124260122966,-26.150872963319443,3.164245530319704,48.23127380801952
1017,9.87635750410152,-27.89617986198664,18.250408681424915,18.945391412912613
1018,8.414216071501187,-28.73510345957584,30.965233579752063,-4.070124647035982
1019,7.026131681651577,-27.677451067373568,38.79836584101827,-28.941045427868858
1020,5.833859321294312,-25.28224434255253,44.08084049002082,-47.62830468469747
1021,4.318600266216663,-19.98019205233913,39.84783526519232,-55.799452955535344
1022,2.6822181568820724,-14.056599012712011,24.24628657958442,-53.01852416009842
1023,0.9235478153291296,-9.009985069653794,13.395088721574666,-27.359406399088584
1024,-1.0294389358109584,-1.357772236908659,2.226160305691792,-3.87557810997805
1025,-2.583763079413984,5.169714575178659,-14.647803217669209,21.81599897286287
1026,-4.348648963778942,11.482753448513904,-28.991586083122456,43.99222421778995
1027,-6.089068698445772,17.289463603363856,-40.67324316620761,53.49993789798691
1028,-7.763607362696803,21.613960784817664,-45.201085384943326,59.83951442553053
1029,-9.465950627489748,26.1493585736589,-43.971120833093664,41.13332083390151
1030,-10.5598685029031,27.157099586499957,-35.608106353603944,9.94144280468936
1031,-11.524812070039388,29.38715436162238,-20.37135056487159,-18.244941812929028
1032,-12.786035254844592,27.194405181603088,-7.44821634810387,-47.12341272426829
1033,-14.023870462769535,20.142056549017525,6.817310922991055,-57.201994415561785
1034,-14.77575955651082,17.637650458042117,22.514095804736822,-51.47001155132648
1035,-14.531765406275554,10.482520100003056,33.36401524842586,-39.22481730778191
1036,-14.172814810771342,2.693713895109795,37.41791840681071,-16.428930142743866
1037,-14.44130114579002,-2.844983646378296,40.949152223703095,10.370786862055866
1038,-14.210070844887014,-11.056434298684051,35.501627707201806,34.45161866328044
1039,-13.921341150105944,-16.490838522741342,22.780618971656168,53.94412603094679
1040,-13.656663907436268,-21.778105221399077,14.841139355807172,60.53126730093936
1041,-12.621818311680729,-25.715195024989494,-4.12250209358217,44.523933269065765
1042,-12.008218089417824,-29.0895838869219,-22.3748852221579,19.748880235066736
1043,-10.767604309602577,-31.26039812614636,-32.55288513063306,-3.691448428554395
1044,-9.153727509420603,-27.667041644829624,-44.73851649088101,-32.59607311842592
1045,-7.965103238595475,-25.05577321906003,-46.60772261706461,-56.651537323930825
1046,-5.6353854008766575,-21.5324590529508,-37.71711706538372,-59.252173749436224
1047,-3.987998988441177,-15.652069655995549,-28.73294839396658,-47.27811894272145
1048,-2.71411680644178,-9.1673261177757,-20.950964715040755,-35.345168476952495
1049,-0.7598147783719469,-1.2875968901416854,-3.609266428515184,-6.82093681387687
1050,0.849805977082724,4.651832953319172,13.317225049519038,26.678440419353137
1051,2.787907149840976,11.263476807834197,24.34982427671821,38.47374260534343
1052,4.485104467037672,17.36422184258572,39.19818257720272,48.38799593449221
1053,6.118178287666524,22.076940483128052,44.95049743675918,54.686400411173054
1054,7.793440424863547,26.87862156144729,41.750689994501045,41.35579794844034
1055,8.8043174908953,28.47565656226652,34.7846785869242,11.882029497251096
1056,10.075174268446062,28.502846530153874,22.329618777815995,-20.24121460958304
1057,11.575984429439814,26.18783346826513,5.844264805369676,-41.29925596963403
1058,12.177929827945263,22.65027519399609,-10.7518952399505,-51.64206065202143
1059,12.131362170314787,18.564481508519748,-25.02979297083948,-56.40578376038502
1060,12.559664965841876,10.86873301912874,-39.95908836013405,-44.48478213446106
1061,12.788463003271318,3.736313715786309,-45.14127346526675,-13.590180712186338
1062,12.943207243803045,-3.545530134794717,-43.13451539283142,9.9211981065464
1063,13.189142278930376,-10.71238097593232,-38.90149386522626,31.497898979980164
1064,12.620253092353778,-16.166049519873013,-27.430253923331293,51.55516506042386
1065,12.259223647672115,-21.86970111429673,-13.461888526754592,53.25964792343348
1066,11.342734764198212,-26.35413541526213,3.367074627774855,41.72202778860628
1067,10.051383377516686,-30.926921398436207,18.972098607533557,18.5483874385036
1068,9.02324286214207,-31.597722381018684,32.04451913978846,-3.659117945854632
1069,7.313092555954427,-29.24072391383197,40.15953248436927,-30.064138628181357
1070,6.3091650256137655,-26.93009621643432,36.19522512328604,-51.42360977849421
1071,4.706429113729428,-19.9092057968046,36.08900806181555,-47.85039920238705
1072,2.399900122204599,-14.356756814909204,35.62652211298428,-41.26010939893149
1073,1.1113423021097333,-9.899556829724132,17.26486955474411,-28.08536167870716
1074,-0.7094387265588011,-1.7742011041591468,0.1105067704884277,-5.262102255288482
1075,-2.50888359075725,5.54520459235755,-13.338582458489329,18.75376782134117
1076,-4.074372808168846,12.890075377335052,-29.950910166960966,44.03233752561573
1077,-6.042262491513611,17.888231567942967,-39.0237050688811,56.86762593782987
1078,-7.628643035193818,21.49579883154365,-40.95273180753975,54.81759742321174
1079,-9.097636023749146,27.672812642839745,-37.96039088779708,39.43052315765272
1080,-10.227101929367564,28.52348505285954,-35.611134728442266,10.962904785279534
1081,-11.328612408981826,25.97254454338781,-26.430813852709434,-15.948809138020806
1082,-12.70262805287166,25.59991541569161,-7.206070893377728,-39.80733184246401
1083,-13.661484842317805,21.80537124699913,7.034224953497869,-57.39954480678352
1084,-14.277876084032869,16.498323174833786,19.70368199015684,-52.13696301335949
1085,-14.219030120176283,11.221808267700908,30.94289723340262,-43.14919594551884
1086,-14.633954673080552,3.152485154906572,37.44204305832318,-21.15349612661157
1087,-15.419420731650462,-3.9333422868248817,42.89474703472752,13.2365056945373
1088,-14.66784124939386,-9.862177312083077,38.58753661400806,29.18326237757265
1089,-14.209283973279526,-16.4890943554592,22.96953278141973,53.11436537927693
1090,-14.057528103327058,-21.980584740025733,10.889306521411529,61.63910149340063
1091,-12.495006551685035,-26.755107385070914,-2.3011806987142336,35.40567505554009
1092,-10.97943135674177,-30.445808360817864,-21.453056169289997,17.48758814178109
1093,-9.976884569933643,-30.94797301360268,-34.00950228182501,-1.8466887698414207
1094,-8.629476790066292,-27.894662559981956,-40.5268110326324,-32.120551039281054
1095,-7.331740304991399,-23.97615008553112,-43.90226108961542,-49.84063105425412
1096,-6.052707966956405,-21.000621517358923,-44.94530028886311,-52.21034087043336
1097,-4.155612662154454,-15.693329771182109,-34.158532896650286,-47.891915031585086
1098,-2.3741485265636584,-8.308293361593314,-14.334875841042958,-34.92312648166444
1099,-0.6330889875525827,-1.6519092210910458,-1.9256845669333416,-4.861462292543365
1100,1.1865236990579433,5.372977258709398,11.812671168701854,24.76288367750749
1101,2.7096557663580825,12.898709011802566,28.87945066444172,40.12549864761786
1102,4.655181978938344,18.74690809175536,41.97656734092197,50.42799237817599
1103,6.402421575829067,21.842082945647235,44.75084246784354,45.780149050451655
1104,7.811262099845408,24.449811945157307,38.44348866068867,31.036837136744
1105,9.037863157946049,26.249316853753957,30.498357172267788,12.185679570857246
1106,10.037209149944829,25.566644692362388,18.23018055159628,-17.369628338876282
1107,11.553104787380107,24.657313453917595,5.7310916388578335,-38.06702548736212
1108,12.547911395122355,22.89451200677649,-9.24398087348436,-49.70637001394607
1109,12.6147229141543,17.914260383760848,-24.44539187250848,-54.72725462123344
1110,12.56754657487818,10.346634348366932,-32.23936190148925,-37.21889939659741
1111,13.25203776735816,3.172809561698159,-41.77451137998651,-15.610408506781823
1112,13.955237626464625,-3.0285722932358112,-42.802725046277374,8.357278017072531
1113,13.448623152474283,-10.082189721470058,-31.169664074151115,38.57421713843178
1114,13.435853148368553,-16.150887226304803,-23.94422422005755,48.03844158319407
1115,12.928043537753185,-20.429552007894927,-13.451481221283755,45.60735955647033
1116,11.200821699711014,-25.89461922472765,3.1108482139125044,40.78984432482139
1117,10.22175790066467,-30.61512003017924,18.87268735730777,22.188765342038096
1118,9.237305042484875,-28.581746130555985,33.12388854781693,-5.2421244771030615
1119,7.871898331331977,-25.57966722047513,36.85262567884547,-29.848103195250587
1120,6.1466762202835525,-26.38353906309294,35.85991053122871,-45.6815679406991
1121,4.45165584796996,-21.352586679628985,37.791884852682415,-56.70662275274117
1122,3.092150981312443,-13.252665622974746,30.22938673682802,-56.49255700455069
1123,1.2627253783066408,-8.286790636158003,14.058199212307954,-31.980626566213687
1124,-0.4628075474620345,-1.5583659610829272,1.9870025646696376,-1.4423482909060112
1125,-2.226458650974564,5.60022611650129,-13.60367949456213,19.520756316738694
1126,-4.171378541860577,11.756294717545645,-31.25306016830018,45.01214316724145
1127,-5.773849430082919,17.799992316331554,-37.92341681586368,62.11376094525076
1128,-7.369748873913522,22.315033547713934,-41.81335408032464,52.358769834329
1129,-8.82342250695092,26.229842629752056,-39.85908438356364,31.640056597270814
1130,-10.229095925768888,28.16200378893882,-31.32606029737599,8.595783937456872
1131,-11.572830855498069,26.576085327379587,-23.83733074933025,-18.239513530463228
1132,-12.555182271272315,25.73314846707126,-6.564616396976817,-41.26259590291557
1133,-13.347212808264883,23.634956621221136,10.342132152542035,-51.10354762154566
1134,-13.647777501899329,17.469352954944043,20.98055073132855,-52.94702455073275
1135,-13.899446776045806,10.508297520183987,33.884459793984206,-48.90930178115377
1136,-14.512961434274985,3.5385666512838725,38.4608107953909,-20.632954684588185
1137,-14.653304659716014,-2.7907094255906486,37.32210273173496,15.336283440086843
1138,-14.147088367397371,-9.907789439376756,35.49800758590027,37.94914636480826
1139,-13.476653879240985,-16.170878685912612,26.990195162775308,50.81578650774645
1140,-13.137261575047887,-20.02504443857015,12.828382469399912,49.43321549151733
1141,-12.732867207478192,-24.18952918624018,-2.6000429898713264,42.01425688596101
1142,-11.314062919362186,-27.58724827655351,-19.37249372964834,21.91864500833617
1143,-9.858948023958874,-28.81915305596613,-32.714211248566244,-4.640245723416228
1144,-9.048547489239354,-28.366359878519688,-36.10276088860883,-23.527994949543427
1145,-7.489756960659179,-25.294815273218774,-41.205515573464254,-44.52114436381453
1146,-5.502638547724928,-20.075847378923758,-41.5671367415498,-51.41135408820628
1147,-3.956483423261489,-15.222745813273832,-30.7052606865891,-42.48326785273821
1148,-2.16040364636865,-8.335282020875638,-19.05657471519225,-26.54035791441493
1149,-0.3405849229147861,-0.8296912471505493,-0.2723996589429589,-2.1887503175275924
1150,1.244913627173446,5.312282393274472,14.176260069876662,24.37970846872668
1151,2.9572902435456854,12.144681885417413,24.013105523962626,45.006376907766025
1152,4.661799251395678,17.52659382791535,40.26001548359454,52.81588622156232
1153,6.417397632681968,21.82590932040239,44.15675341955557,56.192191251731856
1154,8.016513233868864,24.21188094917852,40.21311489414984,38.944641566546125
1155,9.057682689631292,26.27975008376416,37.50358317856717,5.968495952296507
1156,10.104660015568696,28.22418195490627,23.066150094039585,-17.553971921342963
1157,11.368465046462916,26.323034387583903,6.035432784839031,-43.9385766789419
1158,12.489333567829815,22.91974188457516,-7.120692969059746,-59.904127271649486
1159,13.25394691179008,16.538242057634307,-25.978093128441287,-58.73965532802322
1160,13.30001577805706,10.04166458736745,-40.39771840860613,-41.1333739065667
1161,13.223597133739531,4.667023856048218,-44.83582287872923,-12.705176001627478
1162,13.378822378606856,-3.622886941507204,-42.61449563980568,6.7831880541743885
1163,13.125086289477622,-10.004601177276529,-33.78770496438483,35.98767346578461
1164,12.499558992531092,-15.360008772771836,-25.100570646784945,61.70276243961598
1165,12.165426423925055,-21.517019355894263,-10.702228110440956,56.145619928291126
1166,11.56008207467312,-26.26804486659148,5.479953508079234,36.82351258256858
1167,10.230212217736153,-28.069918019652505,17.456243832818473,19.273865719133028
1168,9.305845271763246,-27.03257591921283,33.81491848283304,-4.034703999732301
1169,8.128291669924693,-27.899479224084644,40.08581942917999,-36.68705254477391
1170,6.669169288467856,-24.51293758433349,37.85583713583264,-51.805321635220025
1171,5.138804375405016,-18.46820335135544,40.33237011404936,-47.8483717177478
1172,2.9001051992354405,-15.874234409609016,32.44912980199888,-46.79938411245712
1173,1.2736874640922906,-7.931370390117991,16.334160156754024,-31.66543473082129
1174,-0.2986589702886704,-0.6790443538466207,2.5672108653166106,-2.507963007867147
1175,-2.259787787510504,4.812889418753912,-13.52238648822322,22.89019746148915
1176,-3.946659303386696,12.973285211181974,-29.97253733558773,48.86579867283581
1177,-5.514601210586079,18.137052768501235,-40.7029806623168,64.3139842157907
1178,-6.922722948476803,23.597419235788948,-43.5404047244092,57.5650064275942
1179,-8.645470033019592,27.446056947346733,-44.97153212844296,38.39956467760203
1180,-10.045684129320762,28.89113499576433,-39.72484993319176,13.15688116464662
1181,-10.853836702130138,27.36063492158337,-22.37113242006808,-20.78231422090903
1182,-12.055983889125857,24.9050241097857,-7.374272301388828,-48.89139617755973
1183,-13.576523107098184,24.04850417058788,8.431119255187241,-58.27016952849408
1184,-14.103515484921443,16.705271873544007,24.850887085192426,-59.03667283872346
1185,-13.846156965610136,10.47416643840279,32.56295956838221,-47.16401389428029
1186,-14.4802951052734,5.033251470904361,36.12098990750656,-17.25033431143129
1187,-14.787995856284397,-3.926006862737268,37.34474014169928,9.651543983598458
1188,-14.4180425151917,-9.583249649506795,36.459662259274864,29.49409548904805
1189,-14.148081225595888,-16.015370296875517,28.37180261686035,49.87288981226084
1190,-12.942365136619628,-21.934316433275853,12.82693814757613,59.907754838754045
1191,-11.742352963488884,-27.132895286362327,-2.885700817881116,51.41228965163282
1192,-11.020966047030017,-29.792116277528294,-17.718981939131027,25.685610845381238
1193,-10.217754987442277,-28.396515708105653,-28.35228111695096,-4.288581235301535
1194,-9.2034989627673,-29.368702707461125,-36.4989310354581,-32.72318853413162
1195,-7.240348001376333,-26.621029352406367,-42.249376471177584,-54.25779103431523
1196,-5.312308246562679,-20.25439014071526,-37.88152344212176,-61.51934514729692
1197,-4.028422415390196,-15.378917406645089,-30.55295222075165,-53.846181763927234
1198,-2.1745685654468616,-8.495065633363083,-20.24567520727078,-28.472665437109757
1199,-0.2559317386430848,-0.698611966477074,-1.9757287991023984,-1.322289202713364
1200,1.3679948664175754,6.153873904777356,13.253998553780548,23.801428682172627
1201,3.218152991531497,13.359508352598825,27.85793742245869,47.2339566710707
1202,4.6925172150859,19.418762160012196,39.29473064728063,49.80946112643687
1203,6.211091010625751,21.84624693496517,42.25631255728285,42.15516756107718
1204,7.929549404934733,24.91992494621536,42.23009382154396,36.53376843787555
1205,9.31750702473073,28.35121134322253,30.16492920552901,13.78026202170804
1206,10.625587055302276,26.924849972568158,18.200393573079964,-19.522002987245287
1207,11.7397071621117,25.38806378537174,9.742931360368855,-44.59964020942425
1208,12.476752906156436,23.30607090322792,-9.164904100503463,-63.95949403121631
1209,13.106847564970847,16.798973012448187,-22.51427314118564,-64.7008550129085
1210,13.673176230760872,10.158485438789285,-34.79377691303944,-45.31191338344252
1211,13.476122990338808,3.895098252902244,-47.43951727515696,-19.72277746945838
1212,13.146241066407129,-2.736922401979428,-43.8924380293065,11.185242365630984
1213,13.558464165757869,-9.859734592602765,-35.77835842591139,34.73941931050831
1214,13.307539805420674,-16.601928254194718,-27.846488023199527,50.9514606284647
1215,12.069972994905584,-20.76942021844934,-10.658157996700538,61.896008287454606
1216,11.395749410271492,-25.79197537975051,4.480547888793353,47.982072646753295
1217,10.79999279240019,-29.667101196474505,16.798832783793614,21.293416106265795
1218,9.350344996689271,-29.61878387668185,32.492746642368274,-2.730562359200121
1219,8.008342044111487,-28.889004451823894,39.083150984668464,-33.547692185016786
1220,6.720861757909006,-25.22461617627232,45.48139601315484,-52.48090568459702
1221,4.969696551806919,-19.848887868100974,41.76040710815232,-46.77680211283951
1222,3.271681182734937,-15.008349228001862,23.640825699054854,-41.10725401499076
1223,1.567556994712504,-8.589371729675804,17.442619090424614,-32.492397190570045
1224,-0.2561260520033102,-1.311253936302819,4.295024303246919,-4.566442256749724
1225,-1.977984715385901,5.918379997659031,-15.217854407374489,22.77129756445356
1226,-3.77807330102587,12.405133364659378,-25.60116219851284,36.85646445735984
1227,-5.473335135465277,19.218589128781787,-39.034480890439454,53.15163869267235
1228,-7.041677486856315,24.20741159911813,-44.64490405397101,59.84270563706741
1229,-8.727785736356054,25.0336895645587,-41.43162287658083,32.87753654255175
1230,-10.012636816492886,26.6999897629712,-34.16846753681557,4.45192394060723
1231,-11.101542487899678,27.952026029318404,-18.1064868886192,-16.274884517568353
1232,-12.194534393393042,25.633589838114855,-5.637504534112622,-45.40879301094356
1233,-12.840716213718224,23.228242142430645,7.754239514454639,-55.71163918384264
1234,-13.883345729715984,17.642706134060973,24.02464132443447,-53.44192365891104
1235,-14.280009878591954,10.027851590140015,32.24622056042165,-44.49878303258083
1236,-14.00425569689014,4.279982604573888,39.45594160012354,-17.321319833670714
1237,-14.5520615939231,-2.896635093033183,40.84724684889693,13.469798804742824
1238,-14.048818747856783,-9.124211351795566,37.398634245173184,36.369823007471496
1239,-13.374719838247074,-15.195354873791077,29.298235093883704,46.30586888609287
1240,-12.770478203684434,-21.633289078145022,10.872468274633547,52.96606562229317
1241,-11.392236223452528,-25.04989208597817,-3.713984587462278,48.84029456821008
1242,-10.766437073501947,-27.09251856432184,-20.293541815681124,24.666845989851936
1243,-9.696760460969015,-27.372709737499463,-34.22329440074657,-3.257356741329204
1244,-8.296760797634306,-25.71103157633752,-34.78103122339064,-30.88330218291412
1245,-7.004596120087626,-24.56775229109371,-41.18594153089259,-51.919201544198586
1246,-5.3234344155071085,-21.491188084142777,-44.65037167681476,-60.47758925959533
1247,-3.816855122187917,-15.218688896507048,-30.363878125871565,-53.47917790456995
1248,-2.0044097390928077,-8.581392197429977,-16.830086639969295,-25.699726634604303
1249,-0.1669494069619759,-0.9574100731542784,-3.796408860347356,1.5453037221741397
1250,1.5307924223488951,6.359973187901232,14.748941528698367,24.27403854867589
1251,3.3054448616849186,12.5357998782124,27.381655290197443,50.86401552248026
1252,4.834355770901311,18.8060992659598,37.510124696799664,54.16520877404764
1253,6.621243497022078,23.23210547283861,40.49871483297909,45.0761277008005
1254,8.256148472784844,25.29986577142472,37.93275433151092,35.91632727304386
1255,9.114141197184836,28.139831925609545,35.87756715725783,6.201324079466758
1256,10.529428521980662,28.912891477054018,19.433634679394288,-21.363407765466945
1257,11.847333945624086,26.04812178376278,4.541568595438832,-44.07581364967791
1258,12.18305638941456,23.978101293870168,-5.184469800203488,-62.81484804271622
1259,13.357509431505605,18.086571317262496,-24.17848994453948,-52.1699300727496
1260,14.189492305526985,9.850409649206084,-33.083790306775256,-32.368510917790445
1261,13.69726842781074,4.019879603644768,-34.559314573191216,-14.289643182413784
1262,13.562271207241793,-2.900842839149845,-37.23022467641863,13.223690497872669
1263,13.535555685861254,-9.63709778580278,-33.8461821098274,40.1673777616179
1264,13.032579472625002,-15.008984738407436,-26.1762531000532,58.867872326057295
1265,12.380409626516666,-19.72462529831637,-11.79823426195287,61.016184757423616
1266,11.516212606565205,-25.141289959734426,4.614825264832575,44.67784370210029
1267,10.341421686669491,-29.990490989952377,18.49727645039502,23.262511414792243
1268,9.44514361027177,-29.853296188118293,29.655038512816645,-4.862431520350583
1269,8.235535631559287,-27.587577932833938,34.60291047659348,-35.53669321188772
1270,6.323559346320508,-24.13472078777113,37.15944021706287,-54.11747583815668
1271,4.9934667748657375,-18.14800800783769,35.0143990797269,-57.89708010085269
1272,3.659097024173207,-13.57665721401645,27.755675201637587,-47.20308879484583
1273,1.5898655317105297,-8.479800402666115,19.13724108169185,-30.44133890042576
1274,-0.2011243584984186,-0.9475701309065698,3.8314303416175335,-3.2145004785734272
1275,-1.8365692071356532,6.199304456733898,-14.379632187411744,29.28402786946845
1276,-3.740122170315772,13.194697893904504,-26.345162746095184,50.14297383923167
1277,-5.550690967846094,18.717858482803425,-34.59860834234087,58.02850234234938
1278,-7.0074526516409605,22.32583642867303,-41.974932550430594,48.87974461232989
1279,-8.326394026902562,25.79464173587826,-39.854809957292446,32.440591735178714
1280,-10.095847674896504,28.228187026629712,-31.45032804688276,8.045639461986866
1281,-11.18311398780861,28.585860244718333,-22.336798431364517,-20.96384961406329
1282,-11.533404149588025,25.58960839186921,-5.43278478336515,-37.28669861027811
1283,-12.731555066525289,21.487009750967676,10.15484184902175,-49.31094154499624
1284,-13.281560136086227,17.248875761125646,21.80322458014666,-58.83849996033496
1285,-13.524719347767132,10.552926606307436,32.62279677589959,-47.3109539699517
1286,-14.30570854412963,4.165515456065123,36.40926260203469,-12.36246452857631
1287,-13.702957060278097,-2.552952144008259,40.16359387044804,15.875191853411708
1288,-13.37805230952199,-9.1034921859723,39.28626508232446,36.97844860508212
1289,-13.910131697719407,-15.113330730651342,27.4402636880036,55.976690836319904
1290,-13.26624079053181,-21.77475741294484,14.735855608210386,53.95135582085095
1291,-12.122286310234813,-23.46696875069074,-2.20135445447795,42.835369425770295
1292,-11.372603384355898,-25.769721639377167,-19.69638754795096,22.90957607851942
1293,-10.061542223375907,-29.86401041595127,-30.84412209767333,-5.900831835802819
1294,-8.319697863487818,-27.476061383174056,-43.3428599188992,-29.43291904414673
1295,-7.119904276190937,-25.08000994162785,-47.88824196436963,-51.0233680051615
1296,-5.437148307384632,-21.55635759762299,-38.93295647677769,-61.2578755790837
1297,-3.588558370783176,-13.06486176615158,-27.91241877518496,-51.05852039265301
1298,-1.9312882579188224,-7.286318556937658,-17.416429985423747,-28.79153988357393
1299,-0.037031955126622,-1.7048202360870164,-1.57831071159535,-3.5046702366380487
1300,1.503497760861137,6.332481640699825,16.034837575052734,24.872063805074504
1301,3.306225742915558,12.161038146476583,28.280573541265312,48.74558270106081
1302,5.237739553922438,18.51334593765864,36.626525071372726,51.647232903131226
1303,6.704913400626083,25.268004219394243,39.72249022420419,43.78167510129242
1304,7.908258721470247,26.98503468608999,40.43997293844495,35.027584676361585
1305,9.10384595882988,27.39572731139356,35.674509219084484,13.548672036234166
1306,10.759559668708787,28.516219287408376,21.17712752585703,-16.154384848528025
1307,11.948490745980962,26.954572043198823,6.390096306649866,-37.72241607095839
1308,12.395560580634992,23.808091836488074,-8.559274263345742,-54.76190746878001
1309,13.5532600988372,19.06742176399996,-25.76417850728103,-59.18089768885602
1310,14.01355993408788,12.186391142752996,-37.5926748139018,-40.75109341621646
1311,13.456201485812471,4.488358023138176,-42.5879702932707,-16.89676684717506
1312,13.984220603418636,-2.784092588970225,-41.76857303550196,9.055016747095578
1313,14.262776447898432,-9.359402798712608,-36.075584441562114,30.746215028524603
1314,13.33992772287047,-15.535372444991252,-29.883423344559105,47.21425485071359
1315,12.260302882812084,-21.17525841331235,-13.994772046560229,56.37792466859992
1316,11.756627084379488,-26.689060817345307,6.145041746565767,43.17473460295969
1317,10.992959238745698,-29.635233260859422,18.98534576780139,24.40648744031114
1318,9.091043012454977,-29.70813440266852,34.09111484987989,-2.729931908264007
1319,7.869657661710335,-28.456137143620253,44.06913410582183,-34.99064464657113
1320,6.986529720445105,-25.11829611051849,42.06980348177058,-47.16862157832384
1321,5.072210825388083,-21.15625192343577,35.779232767305075,-54.97443390332319
1322,3.275317778362023,-15.784138959378538,28.953681266123567,-53.217818828085
1323,1.7881325534017378,-8.593364302285295,17.40958560020954,-27.146965169204123
1324,-0.0445178607260459,-0.9706090569888488,0.6492244051705711,-3.4713436718302546
1325,-1.9429450075358543,6.7404742548228,-14.139710164067765,21.020511972631084
1326,-3.545948967637287,13.194681850524631,-27.875999783634143,48.02130097846612
1327,-5.260458000121162,18.12112836145252,-34.49322022550223,53.71870373032061
1328,-6.992416853114264,22.08186281025334,-36.48851863948039,49.67787072548663
1329,-8.422983438025767,26.07964573453671,-40.002775382648906,35.72328774807238
1330,-9.777676038647767,27.67956269207832,-33.492995269957646,10.476763560725884
1331,-11.108564916676189,26.34931109446052,-21.022155035419928,-16.068537758519597
1332,-12.227329765259128,24.853468960966893,-8.281053517651344,-42.5393876960552
1333,-12.788598167753207,22.04444102469029,8.784664573780901,-57.08429752103348
1334,-13.524889321314276,18.221990456244956,25.54799901600109,-58.19858908778815
1335,-13.836743774281786,11.517428050348483,36.9471772723582,-44.83475189699584
1336,-13.699819229170316,3.734586767659039,41.982910999144224,-17.87444357380582
1337,-14.35793789041145,-1.9287331679217916,42.00921036605541,10.878760187918031
1338,-14.10784886140027,-9.055246345865612,34.77093538011923,37.47192198999028
1339,-13.41069942864533,-15.629864957242091,25.877465009795745,56.92081840690662
1340,-12.999590212786645,-21.751817326885885,14.643910217419034,54.63792658362263
1341,-12.017565774840932,-26.674960161791372,-4.269060745035858,44.28112609797154
1342,-11.11661341297895,-28.638402233262127,-18.084084652003185,29.76039942307034
1343,-9.973030253234356,-28.737489666996964,-28.0501913388016,-5.1599819566217775
1344,-8.56106089319519,-25.72885876375329,-36.69592565091898,-30.371957876583565
1345,-7.195382549163696,-25.01875653894382,-39.31111584338669,-43.02112781346796
1346,-5.488687775883591,-22.144476612797632,-38.484786728912695,-52.69006386733872
1347,-3.5509866721076837,-14.053649367867138,-31.9987301271849,-45.56588786196608
1348,-1.8119457577495268,-8.29767060099266,-17.53076450154731,-31.91020046103631
1349,-0.1203361049342675,-0.6803687219047561,-1.0707796782553487,-4.354884183455397
1350,1.630081468343178,6.795080222897923,12.498381471087669,27.555731722013206
1351,3.4933700202677755,12.071953467026104,27.208372576999864,41.38533698318656
1352,5.244592786386647,18.941910782333025,38.89350281444513,48.7190594752999
1353,6.566735659455389,23.219431910539925,44.102256893836056,48.992788891117016
1354,8.217744369304,26.753678637250687,45.276626630718056,34.70704102380705
1355,9.713598587482691,29.007911120813787,38.37009695115376,10.950610289097996
1356,10.617302883118327,27.90453662670484,22.996059903280184,-15.393488138899102
1357,11.772836653149852,27.922769376926908,6.889688740272504,-36.68391653441995
1358,12.622294398054464,24.56208575348592,-8.577926641887643,-51.66608009815423
1359,12.992112744104816,17.847885638843763,-25.901962770191854,-56.91028775778682
1360,13.582159614995817,12.553366410171748,-38.82621695537637,-39.93239518214591
1361,14.257273174518218,5.1355705524492805,-42.52104639842946,-13.1210224634508
1362,14.297946320094184,-2.5479116383619385,-38.04066104609137,8.113370985855568
1363,13.535827610262118,-8.934657114501533,-33.066751597861185,33.8174309789315
1364,13.034224467388867,-15.741605926262764,-27.63664555399191,58.54631328419731
1365,12.689830913630315,-20.893096505373933,-13.596077265645365,66.30106639253117
1366,11.874293893866591,-24.000136055583653,4.68675152281503,48.24225420585847
1367,10.583136143703657,-26.998862784829043,19.606049413904657,19.41277929940091
1368,9.534497966102776,-29.155157810342644,30.76744082104051,-1.3699459909440463
1369,8.604391736981256,-26.798047103094177,41.7238312585323,-31.17232584412156
1370,6.473125025105105,-23.791977422788023,44.0917001878679,-57.20402868664559
1371,4.879891787636439,-21.02601433825066,36.97353246646799,-56.33042343770302
1372,3.6194120172898474,-14.246746409032312,33.781846412044615,-47.807908561505485
1373,1.6181500138977754,-7.7309478411698365,21.287946607069895,-33.31903913269281
1374,0.0588328579921153,-0.9796818814443212,0.1707270595697991,-4.631423461341669
1375,-1.8348311642546375,6.992705871345152,-12.616194600943343,25.70369382362827
1376,-3.5638447718326915,12.650492341405425,-24.82303694533221,46.27495015075715
1377,-5.006392660455276,18.48286376967144,-33.14676755179244,57.7133786550678
1378,-6.859587777624029,25.235916451185854,-37.34000965967334,55.81844417176137
1379,-8.34112175210089,26.877709062088343,-38.895529974558485,35.14064892366764
1380,-9.537378752263066,26.88072532690512,-30.83812820142612,9.39776390024781
1381,-10.785580320426334,29.388460487233715,-21.272456196868006,-18.86992340157974
1382,-11.793436378035722,25.385824789665094,-7.171289441603221,-45.557781422618746
1383,-12.748958987139533,20.943050030956783,10.117238511807043,-51.60189709521399
1384,-13.73247731529682,17.918446812256207,24.38303814570463,-51.97076627638671
1385,-14.050779280185452,10.887272208793547,39.10998491926421,-47.18033801623153
1386,-14.027010196718264,5.811272435612864,45.52200582042133,-18.270429063267898
1387,-13.67139890190947,-2.303463987268969,45.10020720021021,11.794198299131722
1388,-13.387220796677411,-10.292680398165883,40.99245334686111,32.01382217331388
1389,-13.3289613327363,-15.148291399160826,26.979394884674548,50.50027223936354
1390,-12.683144026539368,-21.667555627373986,10.819285657067669,61.326802492382285
1391,-12.094923846416805,-26.274317512755715,-2.739316764879732,49.132793071038805
1392,-10.794601579054302,-27.961561736708973,-17.055567244742633,18.454166040826067
1393,-9.520003358948998,-27.944146389111665,-31.373111685638836,-2.466801877141961
1394,-8.862774843120405,-28.726901029641795,-41.864246998808994,-28.05226461927873
1395,-6.819396470143715,-25.02353996125385,-43.75992749661236,-51.33700522011304
1396,-4.919458801235692,-17.643057227990994,-38.75616051973793,-46.6858593948441
1397,-3.679873506533738,-14.079896604616806,-28.748086396536564,-40.50695448512852
1398,-1.7653229390712395,-7.849202750270251,-16.993763188602315,-28.847837978347115
1399,0.0925434097650281,0.2814003680578025,-2.8671145784473997,-3.357581411715728
1400,1.7324141084169185,6.047784676947231,15.17812746423442,24.039330867788976
1401,3.46360438489495,12.723714632369592,29.11382239296836,43.79483357431127
1402,5.16879537666739,18.03760752449261,37.33294453772032,49.38946571072847
1403,6.69860069305912,21.681791069271185,42.35629033087025,53.95231956128328
1404,8.30114445501772,26.118603277958755,42.77550257285384,42.03772117961398
1405,10.085594686021407,29.76114957696973,30.36644464469828,10.397655691780985
1406,11.175968227980547,30.037450583662576,19.385800542251676,-17.109307331689706
1407,11.574255499614992,26.552212256461644,11.624436176819472,-40.79025917381978
1408,12.607780799975444,23.309588962885755,-9.52330578177316,-58.69587345278205
1409,13.73474044604086,19.269635502550955,-23.371874514892625,-58.92123073610128
1410,14.004716148109765,11.921585008216423,-31.07544872347717,-38.6865267021235
1411,14.245758996132508,4.943715227915163,-41.2947321163665,-15.123141307627977
1412,13.90795530381274,-2.2621597485722305,-42.91790918633342,8.978736623324039
1413,13.37409535800748,-9.495966378318371,-35.08933203114066,38.87653028563409
1414,13.414947279675516,-16.08075850492105,-23.52874031157353,60.51909977271816
1415,12.68256532072428,-23.06123755073122,-12.050718196942398,60.076718763667486
1416,11.729973457508097,-26.093352762798983,3.2638820820457117,41.499302450978576
1417,10.970636799615704,-27.49456240265954,18.058037783670443,26.03781338064482
1418,9.687902318343047,-29.690152578317797,32.32658630113656,0.186636996802008
1419,8.250000942346787,-26.26141050265005,40.34241930113967,-30.50395479634335
1420,7.195107934577663,-23.10620420846317,37.26556956213062,-47.166664891045
1421,5.620769086086057,-22.295109429062904,37.99420805209866,-57.96093522944466
1422,3.5101722704641816,-14.88652674416062,35.3066443109401,-46.20019490378809
1423,2.024356631126466,-7.672990693725296,17.424475214775157,-29.71424937983238
1424,0.1456172214909656,-1.5076909954959774,0.1916375281325599,-4.610877494370925
1425,-1.849438154910331,7.326080631673903,-12.909677205153455,28.909366242512988
1426,-3.48728140739172,13.505180264482078,-29.917986008937987,43.86706027683431
1427,-5.234430643130736,19.421120260879437,-39.71217844086277,59.71801329999698
1428,-6.580553701257486,23.93577205740621,-41.12279026291162,55.04726271103527
1429,-8.188072950695187,25.713508666915004,-44.63586403370937,33.99755872544483
1430,-9.923296531528194,27.884449702676648,-39.20628647507874,11.922052772490131
1431,-10.945193220505756,27.65689208278036,-21.9662285668046,-17.67594086123654
1432,-11.668231003000528,24.37174829041669,-6.980661670330846,-36.56643513019935
1433,-12.243575559929129,21.3547960931046,8.96971695042157,-49.65357177251008
1434,-12.857879374669553,17.743249346737684,24.150518282608573,-45.74070294496914
1435,-13.825291427147135,10.554499578808644,32.29872939359939,-32.75800542067191
1436,-14.433327302887506,3.74072950212576,42.40048905834465,-19.2348140819945
1437,-14.195330113002116,-2.040506243791242,49.5603900141432,11.923916942396772
1438,-13.825384976395751,-9.275774344630008,37.76886932367052,35.89763145091683
1439,-13.496903710066364,-15.518186087391769,20.77243606720276,44.60653789345815
1440,-12.731046696886551,-22.370339105788844,13.133749996781262,55.15243652799745
1441,-12.115032856874675,-26.550545642495308,-2.8161917268244,52.45752626908234
1442,-11.27169346646724,-27.779808073266395,-21.294216549224075,21.94729922615079
1443,-9.708912492393663,-30.45884508313702,-29.146647912895787,-6.619769334882221
1444,-8.509539459573489,-27.127771154443508,-37.1805677164175,-27.77562903771559
1445,-6.908320265845532,-20.908594341987737,-40.80546627964668,-49.79908770271777
1446,-4.991786154448391,-18.968084918812565,-34.75236149066404,-49.40231157972312
1447,-3.6980003448493335,-14.979114558094809,-28.6769762934955,-44.0099090340027
1448,-1.727244379223066,-8.25413831919741,-19.74397687082728,-30.730795136184952
1449,0.2571932562736947,-1.11038581273624,-0.5688047597732293,0.7955346711460152
1450,1.7102925522262922,6.647434055066697,13.27849222247005,24.576966921745225
1451,3.4935345070512085,12.835486507673522,25.36864949109804,46.7649508956174
1452,5.224279523481982,18.852103047076525,41.14985627653914,53.499496562976674
1453,6.927282496732005,24.23201371293817,41.64839075294185,40.92502699256602
1454,8.11627054094015,25.79011140226612,39.34310805238238,32.415415621220745
1455,9.522541825027474,27.389539442793648,34.94143414341488,13.436941587577168
1456,11.24276355277425,28.326336720289877,22.77989437604083,-19.27280122332286
1457,11.742704773853347,25.72986273904553,9.860839339391532,-42.85467750029602
1458,12.718034487720615,22.19846374755525,-9.661532476800858,-55.7183615434692
1459,14.002985591425386,17.060079815239988,-22.438822936225733,-61.96361100383001
1460,14.151334513153415,10.952477335027652,-33.78078979209022,-46.13540052768121
1461,14.393956172275011,4.585886715496599,-45.23877368798367,-16.998904444645632
1462,14.17892290719692,-2.3593974536233877,-39.3533480817996,7.608368992941905
1463,13.235912558574457,-8.863912524726402,-32.448655750222315,32.92359793419291
1464,13.189227355691855,-14.693041962732424,-25.73541548099365,51.04842113422456
1465,12.94556738125857,-20.50424017640762,-11.434726015430895,58.16063539353309
1466,11.69467632729993,-25.510543270725066,2.798419357297462,55.19900884622439
1467,10.971540280594128,-26.99950686867851,16.536211769326655,26.709882254003787
1468,9.58305304392752,-26.461741300640824,29.300056854757717,-7.333679776533245
1469,7.935084063945396,-25.699654752161223,43.38041972656174,-25.44215293819252
1470,7.03079023028431,-24.16577344754205,47.74617944693273,-48.44719485441328
1471,5.12831199631637,-20.08243457572098,40.87065000239818,-61.94244973189416
1472,3.50625688616401,-13.154812354307978,33.48160598304548,-45.95393899819828
1473,2.048719160902237,-7.089024883991442,17.475005481226617,-25.99715033546363
1474,-0.010141500224563,-0.8955765619321028,0.5231404041105634,-6.517669825396297
1475,-1.6041003776858815,6.9719380805499895,-12.538803763201033,25.29348064788246
1476,-3.457177788360696,13.283819112927633,-25.845254943847976,48.351812086657446
1477,-5.163152125300712,18.363075294917508,-35.65123528526783,52.61458435571421
1478,-6.699752936341156,23.87929169601648,-45.44752873800189,53.322861017106334
1479,-8.400028925253991,26.920730328442005,-43.32506248410573,35.67501560760502
1480,-9.49558306769859,26.58276411578481,-32.496640580423445,4.288978157395832
1481,-10.851746434264896,27.985861006099185,-24.577280056489144,-15.230998962277226
1482,-11.983522522074509,29.16556878948268,-7.8900520580091325,-34.91316147604084
1483,-12.391703693980617,24.10760822145676,9.52322698998887,-51.97141143439967
1484,-13.39964829035489,17.678756030623845,22.958486346794416,-51.65112404318734
1485,-13.712282538269848,11.58899828761787,35.896647202452186,-37.1181995324414
1486,-13.963285789272504,3.9295760549257466,38.71153860429331,-15.169709993413562
1487,-14.74103068250588,-2.1227520185075264,40.05157751948445,9.113057323311295
1488,-13.789059156369603,-8.718270815342294,39.594310705081625,34.54328446251566
1489,-12.907043074628293,-15.44014729266928,25.68519405617189,51.29837334070271
1490,-12.47298727758971,-19.657167129927984,12.51901805702346,55.79611918052797
1491,-11.20275917602521,-24.139181124191964,-1.596441670420063,47.07125322216416
1492,-10.411792471276383,-28.476599142619307,-21.169187898677592,24.32649823017164
1493,-9.41399127372688,-28.99959678759842,-31.82830800307329,-2.723710468192621
1494,-8.013529268724142,-26.113616172421644,-38.13321950908539,-29.848264557221228
1495,-6.832320159363917,-25.00358458261689,-44.2134881921038,-48.13056065856563
1496,-4.881565901235263,-21.03290804435801,-40.98207928379816,-50.56699235509132
1497,-3.22247960418008,-12.329989151763584,-28.0142999607624,-44.04003363715674
1498,-1.8751767382809703,-7.0683899892237605,-19.178847164152103,-28.81569563193807
1499,0.194751541682308,-0.6355963491823786,-5.309792120683596,-4.252975298473757
1500,1.8328836632454115,7.447279351315956,16.180343827864817,23.34304837352556
1501,3.5837708079079675,13.16677336279281,25.805583923955965,48.31943129551746
1502,5.501179626511657,18.836172535450714,37.10996468105168,56.60289680492497
1503,6.896108288805408,22.53204417925008,47.28933907217379,47.11580016430071
1504,8.534811421419363,25.11276427056509,41.909892275994935,38.387116824436816
1505,9.9858819302317,27.43967573486225,34.19563671030119,15.402752017092098
1506,10.900193964603204,27.589179522345148,24.04090366909168,-18.12923428447812
