,Fz,C3,Cz,C4
0,11.757252529704903,27.972205851802336,48.74306189421087,74.361515751674
1,13.505159121528513,35.49275359707208,58.14801827858755,96.53775690532142
2,15.29973785008536,39.84462660819504,69.6082890916802,105.86776208098534
3,16.683057571212608,46.665027603819446,67.262478165521,95.47970953610432
4,18.11377529211397,45.410464697823606,74.09453866538396,61.80877575122861
5,19.52599518930407,48.227621284971946,62.51446945213659,38.49094215456567
6,20.400896474246984,48.42334277171879,47.01920703329697,11.19382735818136
7,21.44674782727337,44.4542173571095,31.020501605031413,-2.30901545861245
8,23.10288629840244,40.22707417626504,15.155552396269831,-21.22735463286837
9,23.44173468509093,36.085907635685416,2.7932755876112907,-14.25599744555359
10,23.29327772515005,29.14313247647792,-10.239369629587747,8.229709807404163
11,24.686765934782123,22.280362756175407,-17.950231465800712,35.08525541516492
12,24.7640948585899,15.376359650463314,-12.922342880104864,59.5025167614447
13,23.381894139416676,8.361973064040779,0.97880366188652,76.2005263908903
14,23.449676521191545,1.4571918768440817,8.366089372301442,105.06167995682176
15,22.93336255674631,-4.235826063773835,24.35958846390553,85.64424208207348
16,22.06396265831942,-6.370281718974084,38.828416085511,82.6271980247351
17,20.616683046814025,-5.709432361669393,50.683987757897015,50.69398190298253
18,19.86951474464076,-7.992563963536892,67.30441563514937,27.074070478171837
19,18.48134121172544,-5.820508635064961,67.51554991390668,4.256907951981965
20,16.763938228718523,-4.507321808350767,72.20631527450524,-14.478333494119909
21,15.37395154347445,2.8210751230540687,64.21351003903365,-9.30745465710985
22,13.511451033024956,8.232729175716447,58.33752267136192,0.3773856617048139
23,11.690292463593511,14.26212706817874,40.547769251322805,21.194589549341018
24,9.999999999999982,21.4808656666049,26.20976418979244,49.04068621731191
25,8.198826721237044,28.418627097014856,12.796477156947276,80.11576014634636
26,6.411001690959547,34.40739603362132,-2.868175343014485,100.24539102327668
27,4.825662122565004,39.68106876408474,-4.960244476743988,93.24770732496108
28,2.9719990667807394,42.738978413410265,-9.071754282996636,78.47234304782847
29,1.812046155996967,45.31690016906122,-9.618978930850451,61.4230786956112
30,0.7503690877849039,47.91606459442089,-0.3482896058310274,38.51303465975903
31,-1.3492747781514467,44.86715094186854,15.059682821123292,9.911138256865453
32,-1.4579934780066264,46.51921887399725,28.987615296692116,-13.484408115004548
33,-2.728427939371752,40.4276452429944,43.46048337916372,-24.54042363449622
34,-3.0529871572557443,35.850115170853954,57.07028051810974,-9.008141402367208
35,-3.7550746301074,28.25448783396824,62.788405121426806,5.601000902640202
36,-3.824828777545768,22.3282009895418,72.44893783446003,34.71370700413719
37,-3.5568807033396617,14.73884471332693,74.84094930136811,60.36183676151991
38,-3.3244028883037053,8.962242659555667,59.191718855007785,76.19854219984984
39,-3.854241313753283,1.478127932106556,48.64675666519746,92.24118022563312
40,-2.783069444992325,-3.6117810876017034,37.11471816514371,90.86662567472833
41,-2.016010290047017,-5.607268329774705,21.327892401396845,74.94834598254246
42,-1.3053528600173951,-5.699998240387526,7.044098564737421,53.03250834689782
43,0.6668936228413873,-7.809191020021235,-7.835366850418332,25.652266079093856
44,1.3855954672473343,-5.360816153375311,-17.390325305358516,-1.010526615867953
45,3.194581086621056,-2.3887656377111988,-10.56361418386374,-18.94470354624769
46,4.967489964709294,0.6632060055015998,-5.91930076049119,-12.476884438331616
47,6.339276957550336,7.672144139137615,1.6880833313873111,-4.049041347836734
48,8.296505182114565,14.264343780775988,20.0884117101616,22.350375460395085
49,10.00000000000008,21.545788035169945,34.5705153253877,49.03044121754199
50,11.737347104878747,28.442868542576928,51.25240560722531,72.02865140106621
51,13.563862658802408,34.02029407131345,59.4342496003045,82.02137641687075
52,15.101302562000196,42.18903941473321,75.22629918587313,101.78836339426768
53,16.596389413491245,46.96323750215317,78.12683636282182,79.99226964265506
54,18.28433474039745,45.21334113569108,67.79117597569945,64.77304550348991
55,19.638109629149533,49.89308044260888,61.99171313404625,38.35618958819312
56,20.57525272749266,46.14145427785501,47.50897067872821,17.11168873914058
57,22.517928139355917,46.91302851771758,31.09383648698265,-10.83045846010679
58,22.359595896628456,41.97369145402827,14.62616333927472,-18.79731160256192
59,23.444383960157158,34.242077391851616,2.907301573375886,-6.100884253827715
60,23.66547896994379,29.121143210315864,-12.81616032117875,10.54962291914795
61,23.515839637386268,22.32345067525846,-8.892210078600833,34.267254804281976
62,24.12614348588433,15.10406383216464,-11.427226058083312,61.90700395249328
63,23.48475142963776,7.478860488893774,-1.3757243771518688,85.10184849138295
64,23.927315302269268,0.9192686308638436,5.637212700202131,96.19656019611644
65,22.48528094010235,-1.637798594035175,22.68644914263548,83.08778699976702
66,22.167596167813564,-8.494947349153747,39.047885950695374,80.34606283584904
67,21.221859020511573,-7.487538808532651,53.61446573539369,51.44903824130607
68,19.80942058471584,-10.706742226902133,64.68433990073729,26.23834531624929
69,17.999022278242954,-8.157015314698132,72.55024810248406,-6.860190006702489
70,16.628900570027767,-3.8847476964338954,75.44466924188492,-14.225263109422649
71,15.128190638647103,0.9517123552345764,66.73206595820801,-24.06510289901405
72,13.424250912243402,6.50880510822744,53.61753610800763,3.857505924455559
73,11.85271468875525,14.548523110335958,40.90488065028747,19.38517129540751
74,9.999999999999908,21.545938612081432,26.087416229952787,48.07447681050088
75,8.22039183977755,27.564673262180374,11.30934822571198,69.50072347609485
76,6.462948552505313,34.43969523472845,-4.579865329902233,95.09579196903564
77,4.862680802124534,39.37124177221729,-6.49645891360003,106.91939925239866
78,3.187356596145241,45.2713951566575,-12.04995412149144,92.96907130334556
79,1.586769918471953,49.06697679167384,-4.811571331194557,65.13431701457117
80,-0.0684955561220395,46.563850016768974,4.281066622948693,38.80557665461079
81,-1.0571024821174042,45.010981194219525,15.477371919945568,15.655651312433012
82,-1.9507179388542752,42.79314020636929,28.88999936915004,-0.4682228907244266
83,-2.489727996264028,41.54946268444486,44.01957761717654,-7.893817208489665
84,-4.121322330478829,35.93787089509348,58.35013914139289,-12.3148982684694
85,-4.475320497530598,29.62576078536523,63.45790594120544,10.8896233984165
86,-3.7825950922083535,22.344359737000005,74.0936375984394,34.54958834487049
87,-4.1265156231419695,14.86113705589807,64.68442375997638,61.49552180740314
88,-4.061328961351705,8.789093934967697,59.03144425231753,82.24992798606709
89,-2.874103739020885,3.5627836526687418,54.44726028632056,100.8448782787368
90,-3.266846999529617,-3.264410273059706,36.00859296620319,101.03779325569928
91,-2.2997309223894646,-7.3162842692943535,20.820571968395768,82.34131780162869
92,-0.5344675981231823,-9.045205557262172,6.134731010401655,51.76935119309033
93,0.3846332131762935,-9.173431115448867,-6.970499746278946,21.98544165976562
94,1.3981971826187891,-4.781171492135663,-13.269687026742268,3.491021142022888
95,3.263012864741075,-1.5237943439616224,-8.993080922007252,-21.474497310458176
96,4.6415214958050965,3.1583151929900737,-11.062141089079631,-9.349433956338892
97,6.593273010515325,6.882127997224545,3.402025288079237,2.0688824612095047
98,8.224758200280537,14.286456506744427,19.77191281400603,20.89891623643404
99,10.000000000000144,21.46177545970497,34.68496164995919,48.07051605159728
100,11.758387825540373,29.03056577804292,50.02809500120299,68.76554400205463
101,13.415050437705752,35.41710911864136,64.31425815070997,88.54948477064903
102,15.242785854934771,39.53549845902772,69.44082895802882,105.5307762318744
103,16.60398640240492,43.97707403670384,72.88237598981934,94.95729367809278
104,18.686892041131344,49.9594263640672,63.35313543240117,61.26784901099975
105,19.619189865533688,46.17839330463536,56.65788917450384,38.61973302025599
106,21.39212125697115,47.71783408804178,44.69417262697945,11.476937469342223
107,21.533591284403307,44.07538904884121,31.217834773701277,-11.062674215605009
108,22.51134797040216,39.60152783982421,16.32931046318616,-21.340496390881057
109,23.08786552169673,35.38760333103034,1.937060910622112,-1.252593609309237
110,23.51491129685656,28.33278574670677,-10.786871592325348,4.716501966441292
111,24.617787422629437,22.05258498934917,-12.554805817273923,35.41298382069259
112,23.731953848618065,14.84460383739867,-16.078889311100205,59.91799819689147
113,23.62954454021561,8.805283529540173,-6.014025840744921,82.7411059974656
114,23.67273443716168,1.3233026290509748,9.790161318587591,95.47134945810456
115,23.29742568397865,-3.405858391203079,23.14315324207267,102.49512087267816
116,21.45770289804955,-6.56209909744539,38.59882475718366,77.79076686817808
117,20.38089804916575,-6.146197343728673,56.78198241836574,50.38122130273719
118,19.38865764225969,-6.850770316798108,66.7333691607407,25.66298424855014
119,18.26927480095477,-3.887050198443194,67.56399280454804,2.003118720709672
120,16.692050360218136,-5.327501905829887,71.60171467752394,-6.594260738837747
121,15.022971124250851,0.2355980534007926,63.5374092949753,-17.034501209650706
122,13.575993934508702,8.055298296812618,52.09576525320757,2.459242905517364
123,11.718287648608031,14.742677273345596,42.349607026085,21.797092684167826
124,9.999999999999824,21.272831447377047,25.83086628296069,48.66353203906523
125,8.29905043615306,28.94881713005246,11.97460290728283,81.02291531010432
126,6.327059713707165,33.69713674138954,-5.412762919893545,83.3369189518209
127,4.967631468135075,42.103818370377226,-15.882332542957345,107.4940876122897
128,3.4766619551517657,44.44621091292474,-8.741993662033316,87.99785354560316
129,1.9003138918128213,46.512282812748,-6.740951228343121,63.63704999019383
130,0.3038484230907219,51.0831903582301,-2.226714845172282,38.86362719889343
131,-0.7483605074776634,48.30327974306709,15.59981930966699,6.13713861080312
132,-2.028235533327029,45.38888923809608,28.75104834970212,-8.751353432630992
133,-2.602173289924881,41.5876171051995,43.28177542537276,-20.03795153845219
134,-4.066262016696026,35.165840922305954,56.72656223156065,-17.793151325266827
135,-3.728810197920289,29.109922000131856,66.24292750164865,5.186241238020749
136,-4.6060510123804566,22.13679507529734,71.81127433791127,33.16150035224382
137,-4.494243315271916,15.051958982138409,75.75989986930313,59.75518681208825
138,-4.463837610627737,9.116842593904732,68.31804604924423,76.14442471054848
139,-3.68889229336442,1.1714129232340795,50.13635710936602,103.44808685320402
140,-3.232105066993528,-1.5391592365674995,36.2617588752223,101.64801645582692
141,-1.4721644270151533,-8.25127317975063,19.400437937472454,75.58815427162881
142,-1.2664328015549344,-5.602858629881219,4.838131324797626,50.336489198471405
143,0.079730851299276,-5.49899452036998,-4.312005020875802,24.05984760946974
144,1.4687596469347213,-3.9279757059034033,-8.830104758244659,-5.16786653364732
145,3.1412049965656497,-5.37727612193083,-7.942190102436953,-18.7528529872519
146,4.811688109231549,1.0828070891016566,-4.152778553873112,-16.602567545396887
147,6.626243084108944,7.557084987325709,7.271687002103789,-0.6741284598676742
148,8.275644420986525,14.192829407858794,18.389594041404678,18.582378653707128
149,10.000000000000222,21.550030770011823,34.587111954806524,49.32654107746404
150,11.816135666189934,27.824335468347325,49.674246423037616,72.6606452623108
151,13.4555755879666,35.33054278439001,66.03959110386856,98.79188735199898
152,15.247403901099414,41.65602200189825,66.525169441891,95.28356173657326
153,17.003821654641825,42.46791753390328,66.20582964376652,88.298539383247
154,17.90628779057399,49.278081776140525,73.28181644850986,70.15709210955022
155,19.883852576979244,49.7856367568133,60.594624139744994,38.557720133863626
156,21.17222941483787,46.91812451001324,44.55160533070483,15.355771692418172
157,21.827580755428023,47.28340448658064,31.112613443128858,-10.54591021604928
158,23.225858298891275,40.79639049347094,17.33364090240075,-17.850041622895354
159,23.873940517377964,34.10898216061057,3.9617035725439,-11.646399502921646
160,23.673995403386478,28.715111199446177,-12.855068039573451,7.26224910236963
161,24.64232371687277,22.2441158649487,-11.243549767154953,33.13599932563491
162,23.4124964451683,15.111850919124876,-15.601167092589776,59.72733164424815
163,24.406052820387437,8.067008939987161,-6.9746009065870425,81.11109085176597
164,24.008484250560905,1.449964763156757,7.796226043524182,95.8930240296311
165,22.19076888083321,-4.32712374257634,24.20210730484256,89.71135476451278
166,22.44604824630828,-5.094153846675635,39.14548869625205,77.00844048244436
167,20.987123132688964,-6.508173922971476,52.73940334490487,51.86159709423563
168,19.737257515161662,-8.630425554915039,64.92605253380492,26.079400699294997
169,18.606841691825476,-7.186236403926763,67.07610248571771,-4.141728647113247
170,16.858524260264623,-2.988844245316457,66.65804722803819,-11.811342252013551
171,15.320933023521665,1.361610762537822,71.08106029787663,-10.92781395704251
172,13.435799416836293,6.960104838628899,55.34290656216126,-5.20675712373815
173,11.846335961838111,13.8374653885656,41.49735892106637,22.623077082547823
174,9.999999999999762,21.44393669626304,25.82148524839732,48.36421788205084
175,8.22262115936819,28.310758284920965,13.13098205039714,68.51768444040792
176,6.492436357305666,33.4871392053802,-3.301474520010707,97.72813765654249
177,4.960175360174103,39.19093140693427,-9.223760503081536,104.03945979209767
178,2.904313058566212,46.58692464472725,-14.206555670632568,86.32108212041268
179,1.5255364838685317,49.78288122697465,-9.547097471656926,64.5596345357449
180,0.0771662366749801,46.04018387820184,2.2375316857011285,38.65116472210065
181,-0.4462442363599006,46.18081897093158,13.59971976974255,10.833119424526044
182,-2.367898612131828,45.57535810124313,29.043900594365144,-7.087176878863282
183,-2.612536819225035,39.0592709233628,44.03946716018537,-16.327230543805285
184,-3.082789125770555,36.637662661449006,57.88543202259801,-13.32856349160965
185,-3.711612068482801,28.91606233691881,63.78091071921066,10.41087762724966
186,-3.981158604432382,21.97860213897409,69.88534032709819,34.05710707905845
187,-4.28191086891378,14.728173111475655,69.99069122525822,60.61542022601951
188,-3.2948730616857898,8.423461792542662,60.63489879915587,83.58175138346533
189,-3.0792241733351933,1.91415461419745,53.15336951409992,94.78361182056548
190,-3.421826520099417,-3.445650961977318,35.87291863015955,100.215570747321
191,-1.7819412179738985,-7.309278644018125,20.1061616920734,78.72181193663533
192,-0.910861165224606,-6.671633371944992,8.860409386275027,53.4129091510522
193,-0.0323080866337459,-9.71517298866809,-10.099325276280616,21.782731748914685
194,1.4211810068498032,-6.4677253958819705,-12.567437457014158,-1.1308590653874546
195,3.2959249113457654,-3.077642254790888,-5.844187859030505,-6.889943248100202
196,4.682775400878,0.084377522667232,-1.358082213293276,-13.744085858759988
197,6.394441883925753,6.96127392321562,6.516818074374736,-9.372234327553002
198,8.200434281073004,14.500119636958054,19.69270892862314,23.64323399772597
199,10.000000000000307,21.362231565204425,34.65163444916696,48.949664084225866
200,11.79840886588623,28.16449158475172,48.55894942948629,71.1017743603378
201,13.584773492002608,34.77297275391719,62.10492696949774,82.76250868915221
202,15.096601379629249,42.17073548659401,71.17657307037169,106.4564538360234
203,16.55654575917548,45.306567332289575,75.880840352936,85.03133647269209
204,18.20937549738152,49.98721793297564,74.53856765561031,62.33754910450324
205,19.985660273899924,47.98833036622899,56.152680346924754,38.61654194617624
206,21.28721456690104,45.30702042815743,44.38335789241226,12.655663589725812
207,22.1779028027891,45.78081645511752,31.104756896761568,-4.180079808948186
208,23.206528954153043,39.35260900334566,13.858997587789066,-13.521529221694294
209,22.97414573049965,34.411193710063294,5.078143471998477,-18.75872352654367
210,23.270111076445097,29.63381198853412,-5.762653098260792,8.135505009979855
211,23.55075724827893,22.034009396332124,-9.91525964424217,34.26956962040947
212,23.41636408615655,15.254251122313324,-11.623247530372325,62.79219569581832
213,24.000397955809262,7.271980153410704,-0.2195532943800699,75.5921839825902
214,23.64481690339699,2.0813157469907324,11.274495076774045,87.71069626686386
215,22.564284395236506,-2.7936773672021538,22.79664748441295,97.69533513218336
216,22.10709559125556,-4.775169810147581,39.67400625802192,75.76249828413671
217,20.64243337375616,-7.101640130674738,57.06489082591044,53.23139270091077
218,19.912243737871915,-9.966803972202982,68.26713043455179,25.61520363735273
219,18.314181754162632,-4.216747394209538,77.15229531538685,4.246805170808841
220,16.714796773769265,-1.98056548289955,74.84125811005272,-14.376434652460652
221,15.216930760820087,3.0517313729016102,70.9880891478482,-22.347050814988712
222,13.561330098910082,7.436377736175157,54.04225627030776,1.737982300223912
223,11.699961074916102,13.900386539843549,42.33351030318948,17.76867827466297
224,9.999999999999682,21.516255548936662,25.61314886388426,47.56416295275269
225,8.176408835544938,28.32924759212894,9.99959563262082,76.46809151753081
226,6.376518811309772,33.420961717919376,-3.084462802180667,86.75963015675383
227,4.765388772597554,42.38959702695778,-8.05691120931347,106.07974775232148
228,3.341738072667888,46.84722533106875,-11.06312445212619,79.88340664823036
229,1.2871038879463017,49.519350724571154,-4.904944666919519,62.16524327377402
230,0.7983533150632915,50.60116278163377,3.362164778225541,38.5960262625315
231,-1.430691699085676,50.11578505611007,14.262141008259407,11.913578488519548
232,-2.410958692432825,45.870952578805415,29.006813103738867,-12.47445160466988
233,-3.322848800813244,40.92502056403356,44.33051597168369,-22.74650451097021
234,-3.0503754969437704,36.93849612765656,58.24432572470931,-10.503268773588772
235,-3.214007134336065,29.632198960807717,66.46074471753978,5.274917592628292
236,-3.497814987546098,22.16009316284917,69.5748245585788,33.762879433492785
237,-3.654944156768014,14.787178844148205,73.24265838241436,57.70502466252613
238,-3.734101646434569,9.203477957919182,65.13591477840654,80.66179601334642
239,-3.532076659645597,2.115926305215069,54.50255398672423,91.97934156253044
240,-2.659831508197524,-3.8672622191032415,35.93930642664093,89.66631667827782
241,-2.274463447104093,-8.077432357715306,19.18605757055412,71.50522492585726
242,-1.2547865555296234,-8.118840035814003,7.643778132514722,51.90687740350413
243,0.4435746505207572,-7.944165917422431,-2.617522012367502,21.95563345358336
244,2.064580459615041,-6.845134227419013,-15.982749938621176,-0.4295736489794564
245,3.4841027840775904,-1.2230991692505846,-7.262721625458063,-18.720601660180776
246,4.796908759262693,1.6887606616944844,-1.7777927367385615,-17.317480389223874
247,6.416092410295482,6.654547751890481,1.667935985850388,1.5073150397123314
248,8.231585537237716,14.531197123218014,16.789997200978664,21.11751123382157
249,10.000000000000368,21.345619524732378,34.18874054827111,48.806186223778965
250,11.823344163866532,27.87903609723279,49.90704783349452,79.32831885193035
251,13.57742778825135,33.38523202832669,61.30720703624839,97.6183237108463
252,15.032920624019416,39.05388762857157,72.47013678814085,96.14288160134
253,17.07041593982689,42.80605360616607,70.50988935830159,87.22921777461256
254,18.08270590540077,49.41476116019599,70.34523058617657,65.95387000827
255,19.48580253305948,47.46755243130514,56.59783191923435,38.68648096102681
256,21.23245599694514,46.36632962695604,47.3349255750655,15.775258204952936
257,21.938861382008064,46.92398706738642,31.207140746132165,-11.427195935048424
258,22.458996017222567,41.45958806295728,16.70625814282652,-12.815786587339735
259,23.29974480887617,36.618457185136606,5.833117938685039,-2.94330622150256
260,24.379208901471443,29.833818114409155,-3.877198348278952,3.1121562093441426
261,24.38985051129532,22.1991597563521,-15.53709387171954,33.868062267512144
262,24.776522156892497,15.356671336872886,-11.167715922990157,60.57517825535142
263,23.927221429842977,7.488855743594682,-6.6202732716659725,91.32868914748192
264,23.158692509310697,2.2694655177742646,9.066205199970366,88.03157003252562
265,22.93868347128942,-2.71669387258315,22.85019103682972,84.39633143667912
266,22.40684946239445,-7.602915288455492,39.46058787081839,81.11409935022633
267,20.859838271376116,-6.242476961383005,55.99696977216834,53.47527014745608
268,19.211014699860243,-7.985269645731812,64.7928360328061,24.66406363243095
269,18.236407402026664,-4.6110884713507545,68.85265085434247,1.29073506460022
270,16.654145274236036,-4.2377545553754,67.36483545766743,-18.067728788991097
271,15.442415735648634,2.299251053468496,69.60081103032644,-23.49936187122949
272,13.665854609725349,8.775151751094626,57.504372656001024,-2.517933047229498
273,11.719829507452424,14.849102372367623,41.38780491036826,20.313694445791317
274,9.999999999999616,21.385288248934263,25.363777767550992,47.26630245720617
275,8.298526543466691,29.074455211499583,12.090276604429874,69.94693747610881
276,6.471549006670244,34.16114290745235,-6.515076354935182,91.01353733580272
277,4.818492287155885,41.49511330333125,-7.656061372242725,102.12427991746492
278,2.8731299797613525,45.77061328593615,-11.569683751040031,83.48526080278072
279,1.5338514289170284,48.82472077076495,-11.13396445434796,68.418042890836
280,0.4529451126543087,45.51113049240209,4.543583853248183,38.84599033323799
281,-1.0204326735992009,47.91846862570324,14.596264191265794,12.585772827149146
282,-1.6450441309074098,45.64466960564722,28.838060616023384,-8.602002804861591
283,-3.1339633301756766,38.94304695464373,44.7049670957928,-19.10341376819953
284,-3.15982509943424,36.24463508860831,58.28741716891781,-5.381626255787637
285,-3.688633102084939,29.57716587973198,67.01424435584858,1.753989217607213
286,-3.7302211490971935,22.293026487357466,73.22441356609701,34.82114240132296
287,-4.228192311223893,14.816860444679802,68.68568905656342,59.17615037417018
288,-4.090366721268721,9.06269385992778,60.604190358567365,87.39699158067067
289,-3.243114361476937,1.13986444557764,50.68447982555648,96.07758282745934
290,-2.375071025753611,-1.4360773618786205,36.40699652282146,95.77889956078867
291,-1.923910753856076,-7.26507306959094,19.972854251931167,82.54674572036156
292,-0.735445282158917,-8.732442074690379,4.190942960037059,51.679904838904505
293,0.5577399526787037,-6.329950386168559,-7.788975752978331,27.19182972912073
294,1.4047437682903912,-8.523869145738963,-14.150028580672632,-0.3369208356116502
295,3.0961953493830663,-5.2019051830561445,-13.071610541473085,-5.532944542095372
296,4.807234117420475,2.4277335243675147,-10.900344258190591,-4.94016017842187
297,6.362953687451393,6.394497223173081,6.389970035397685,-4.081800027950678
298,8.229005638191987,14.88154909387062,20.00038186041361,20.43208744631498
299,10.000000000000458,21.433473314065644,34.484160304694136,46.87468848911854
300,11.835881932423028,29.127622313458208,51.67875714925809,70.67703415581208
301,13.395170142859111,34.93805283028749,58.22783736468111,93.7517942665484
302,15.055705090445528,42.2249803899448,74.71285244981533,97.09616475967633
303,16.698258366222994,46.38351623916093,69.20195247079039,83.92039103768559
304,18.01274827392845,49.0339687214874,69.5993415783869,63.81103128954021
305,19.58621971128256,49.33849069980626,61.5629625688692,38.70936934586295
306,21.35656746133896,49.54366406895447,46.13293098824012,5.9221774888535705
307,22.464183667124388,44.94369605523539,31.105039770858948,-10.85912823378969
308,22.4934639146578,39.6315258758899,14.473579061607632,-7.843421362100067
309,22.925498443748168,34.20065457153184,1.3801093757977403,-3.823513896904849
310,24.205929202040917,29.58153675684509,-5.004682061811977,4.395947331681256
311,24.44635505324572,22.03729279017293,-6.544326970451664,33.14918469360968
312,23.787188627775805,14.684995216697365,-14.715260648735104,62.20352248880215
313,24.3139238284699,8.133829278439503,-4.109497399087253,90.0737125769978
314,23.490434773217395,1.5238038763958492,10.523044199048126,96.44404486668688
315,23.263706245659563,-1.1999122410076062,23.222355323784555,90.83634669523316
316,21.805139030359392,-6.050458699445173,40.09058664723886,83.02107890223414
317,21.39669924508925,-10.654109866762097,52.60854142248914,52.75277559385258
318,19.550159399229592,-5.318286338746926,67.60595468845148,26.982413295532385
319,18.02366093762633,-6.525124425445345,74.10293724867167,-6.082217936781809
320,16.90070633615767,-0.8617910610235313,74.93167379748186,-8.349828379344402
321,15.377681424520649,0.3181024455589742,66.22233868141466,-6.736340355195246
322,13.391113987424973,7.303682816327834,54.13939698070981,2.575297362331092
323,11.689945644837564,14.825911632936233,40.9028979094763,19.655853754718983
324,9.999999999999512,21.28338077528029,25.224108057178068,47.136428108829286
325,8.239795219252718,27.75517110915848,11.84407422644881,71.08497530573707
326,6.339625455402558,34.308363433770445,0.1933759944838939,90.50700924341024
327,4.650433243911671,39.180009844449685,-11.175023832684644,100.02564317377416
328,3.007210290054717,46.90588560296685,-6.859055944010713,96.23280120388408
329,1.528430652194421,46.90172775415543,-5.6275430459137326,65.21211506624742
330,-0.0276637183692827,49.646983400034586,-3.691346216152191,38.61311887291215
331,-0.8406072907048721,48.214500358965054,11.081841538710584,6.861569780815593
332,-2.2266444911276064,44.89428703501797,29.033305316245297,-9.81777286628435
333,-3.023730694748421,41.173515392486834,43.816945097719625,-21.147060917531675
334,-3.765596083744036,35.34681589798909,59.89159197717221,-15.697512204111996
335,-3.8889178430561504,29.330173296448457,72.67858303985545,4.843457083153055
336,-3.6303536169002246,22.07773867243565,72.56625878165173,33.20706828493946
337,-3.8408681539384553,15.08406769034125,66.36288501328536,63.86951158731326
338,-3.271107522475525,7.5344874766090015,62.20886707876697,80.1579561559436
339,-2.8414485656592383,0.9617514841091008,49.14308443475242,87.4221988875861
340,-3.126685474340986,-1.3078062472485286,36.57279244062165,94.71010995136432
341,-2.3528345429363693,-4.47010105962417,19.366387824577917,84.39093904211204
342,-0.7419882807125155,-5.245011227397761,4.899850327402117,50.63605119901741
343,0.7694689546943234,-7.170908784838822,-6.031843673294688,21.765479539123444
344,1.817495018378377,-6.875634121375342,-5.730830029307427,-1.985497873291763
345,3.1227941575726774,-3.7686129948110647,-14.984272597665274,-14.5150911231162
346,4.985420551918381,2.1677231894518094,-2.484699912796721,-10.933555212803313
347,6.343877882949691,6.868774600305704,0.7458035824606952,-9.33212536692249
348,8.154408586051995,13.92187407638758,16.914057285356613,21.69067302244264
349,10.00000000000055,21.431950813111456,34.423305939085495,46.97593882744989
350,11.792524487400495,27.87054987584264,50.83890707325087,70.09438715846315
351,13.664462037962323,35.07780157574185,60.85560130417745,87.73252406405824
352,15.081403542777498,41.56952139957506,75.79894380360338,96.05074729135892
353,16.563843778357548,44.58936680321101,71.60982263274568,83.80996780339215
354,18.255389695132447,45.7758900995376,65.2957612382276,70.17555185284704
355,19.94236229177936,49.59807435118394,60.31118590856084,38.80611303183213
356,21.140607170469703,46.278518521337816,44.89275182206579,7.648162570177632
357,21.939453107492447,44.55886604699447,31.156635687176383,-2.3438765344793
358,22.573181769538596,41.68967441308093,16.141726695404156,-14.070338506025976
359,23.26926762546211,35.079086172592454,0.4884675144178665,-16.858856432004984
360,23.51048356800819,28.87216480398548,-7.909601425795337,2.565453845990909
361,24.01291678261688,22.351068143307025,-8.638742301078054,33.21797172370486
362,24.40752677245052,15.240746227786907,-13.68793682371978,58.021884156685175
363,23.86736519460509,8.654932795094155,-1.2068899609702657,87.67783420918691
364,22.89904407794805,3.496571989309082,8.797760250289265,90.49568841050154
365,22.84036560179507,-1.3003638704290346,23.7994051175546,83.75477508888801
366,21.54694346661276,-8.446146089548797,40.274446217995546,83.89674893400169
367,20.70515037927765,-10.322887205924296,52.93597613430313,54.63549616094107
368,19.225106440806208,-8.776500409273499,60.11257616187049,26.2073723572146
369,18.15365410851885,-4.912866093317842,72.09958025702826,1.183467298683503
370,17.06171890474231,-1.2648052459359818,71.0041903244987,-7.052011052687995
371,15.299415883405374,2.270667719134085,68.52542410032135,-14.584308703791656
372,13.368481286598106,7.73944946777114,52.01642174601741,5.505130972108539
373,11.760512476795649,14.786724757965208,41.58178272997522,23.375042565236956
374,9.999999999999464,21.53576655593435,25.23584201617817,48.06990235192501
375,8.238446293071803,29.130751310099043,8.103436905004013,76.8331826286397
376,6.549137606021657,34.52501191899529,-2.710952684504377,96.99166806965128
377,4.677324956143855,39.42877302517104,-14.188756695857649,98.52723235992217
378,3.2615419869110926,44.51261679204205,-15.229651258993345,86.12709862513316
379,1.6976109654395657,45.30288344172968,-4.181029761619364,64.5968786642251
380,0.4441639520908378,50.52097809964668,1.0383770826196823,38.582263530720375
381,-0.5283749197474812,46.903846632190096,11.847338813401826,15.30851845564046
382,-1.858936523056018,46.52940470377808,29.0726226780786,-0.51311109046447
383,-2.438118856793567,41.53816003331573,43.53261012905229,-9.056489298056476
384,-3.4636641636451118,36.60968765656729,58.07642712992735,-6.142529455621741
385,-4.094346474126365,29.502214189869637,62.73668739994873,7.081443701138923
386,-4.32937718779133,22.28271443089333,71.7781977515281,33.46002217069213
387,-4.13800923576828,15.091187605967626,72.60492433443449,61.22222359061189
388,-4.552727929391679,7.319532367833219,65.48209614118704,84.76074885429941
389,-4.007554603539507,2.3244353662611807,54.43149290623609,96.21552989576487
390,-2.993596424664208,-3.423533317134151,36.32326262749914,91.40221740650476
391,-1.8230972918649488,-3.929986752086645,21.0010523782678,71.54375395631529
392,-0.8935146354210382,-10.771676457787931,6.920511188223824,54.48929257927925
393,0.6659235484497277,-10.305362450382711,-4.806163151734225,24.539361679548165
394,1.643534989373013,-6.620086662337094,-8.864745190313428,-5.1406260235497
395,3.0292205906462257,-5.226381780004118,-6.004010776772347,-23.993616966543502
396,4.81940990391888,2.440881035963155,-11.251089012588103,-9.498613615582263
397,6.651610608299984,8.656718557880284,1.2077591227531244,-10.296412736714842
398,8.246087777067014,14.670619441543543,19.05583771104527,20.26504214449328
399,10.000000000000576,21.29415849934767,34.20758510051454,49.10298131065196
400,11.696076874987993,28.023433521963995,49.72014306377223,80.02885019013465
401,13.350465632900116,34.681904830828906,62.65422981370912,94.90145010432414
402,15.11427138388924,41.612177361276565,70.38072997141744,94.8949531079566
403,16.618874566856817,42.70321774721759,75.27030691163003,94.75519938626248
404,17.974580573207902,49.65073576751729,72.10144286409886,64.50641315764241
405,19.974240224705504,48.10246729933954,57.10323718873319,38.352018503685485
406,20.983603759688727,47.32218202414684,48.4633350243895,10.801263790885208
407,21.764299509093696,43.58414150184398,31.024933603971668,-11.48964129508324
408,22.94431062601656,39.06551406751088,13.375405550984848,-11.527104996392788
409,23.43491499083733,34.438284778288924,5.543309018491573,-1.3656671925940174
410,23.29308115951767,28.192548927977832,-3.747500392760657,5.341752740485106
411,24.575921395895,21.955543605964337,-9.881975116588436,34.55537496371041
412,24.339206940485724,14.65705001087522,-11.71538331253378,59.02706135556365
413,24.1891181526246,7.917885856771425,-6.524332334543686,83.28522067982024
414,23.54002749564708,3.8808801810523543,8.430171065071644,91.30132267834024
415,22.34304868886184,-2.406800742742565,23.08524812381742,103.17409737775505
416,22.26910684802363,-8.292315876147029,38.17870766927906,74.50656050968885
417,21.01090359151592,-8.97771584865065,55.36022023890183,51.721194649761976
418,20.05867560746081,-8.62014176052081,63.997030834909616,23.2521396012427
419,18.58159628126242,-6.493466346585976,77.20897904279042,7.852994475519637
420,17.100341140321497,-2.1879929999347354,72.87839011108387,-18.629186798511093
421,15.02682245714602,3.034794319357278,66.7199727536444,-5.813238241224632
422,13.615898745969488,8.142847902637415,56.33078945539255,-8.009705648865406
423,11.821409408696704,14.307416875977982,41.86774245139531,20.8107285844234
424,9.99999999999939,21.34691343609757,25.66962415066585,48.03851535032177
425,8.151050310163075,28.722868185787437,12.863770004073237,72.85807634636186
426,6.422573096611863,34.02403031199885,-0.8052937309561621,99.79665373933751
427,4.798912072231822,39.73020620263412,-9.866922385067468,98.31415085014048
428,3.497524374855531,46.24702199211262,-10.216227092285392,90.30634458336186
429,1.7733359799311614,47.57862905020694,-10.654044797616358,68.23248216094044
430,0.1184489343880521,48.320944500297166,2.375472783129819,38.34945045225963
431,-1.13566759024455,50.022817967845576,14.452152343376762,5.861996061518063
432,-1.5075434954395668,46.46149655612904,28.97361094369638,0.074267056245759
433,-2.9530794323198464,39.28539529899709,43.2548191533352,-24.200231381141208
434,-2.924744319902114,34.47360728478987,58.32563583246149,-8.988516838598727
435,-4.537477353643586,29.61607521446413,68.22373529227465,5.829907545419516
436,-3.5973763667204555,22.23592422846416,77.40504904806897,34.344729497306275
437,-4.032860919686618,15.040595934442294,67.5650598944195,58.7545513226989
438,-3.2243469928238824,8.154998048492676,66.36028712037245,81.48826998171597
439,-3.922482034961309,3.493056351185196,49.63911384785858,96.11542064739706
440,-2.261488960238696,-3.6294736872957145,35.665757959123255,95.90003706466214
441,-2.028710708081409,-7.903595041981482,20.019485644339436,83.6015469868072
442,-0.6291625771257969,-9.789697344326456,2.8067658501341235,52.11701142166399
443,0.5567232968136366,-9.628802912409498,-5.702195414764454,24.163728403519368
444,1.9280955446153007,-5.431087685918921,-5.778148294680541,-0.7886271779389773
445,3.3882822204296907,-3.8529577361082583,-11.280220331802305,-15.85280247315891
446,4.609228633170479,1.535564782848514,-8.981401083424842,-6.152836684886211
447,6.352931629685504,8.592777639179976,3.2402858078120254,3.026342329785649
448,8.229442879960732,14.728880684000448,19.40270148900579,24.35339892935539
449,10.00000000000065,21.28596116256982,34.16890004846601,48.26203479217572
450,11.753033589650723,28.633566342759597,48.63276361462507,72.54466342546885
451,13.629126596098072,35.416894712899776,58.72464682061965,86.69326212497697
452,15.123849424729489,40.04158790663016,74.97638356108246,94.19795372273258
453,16.740847002827294,45.2103544536545,76.59591182058564,88.81347659747837
454,18.6937533774932,47.67288885142761,71.84340800586789,67.85788942983186
455,19.398660629576504,46.19359035599445,56.01739346864316,38.85872770406416
456,20.35791978950563,45.7223076849245,45.434888373448416,6.179588125831103
457,22.18108314063715,43.47024604824452,31.245842621089302,-3.2334301377635413
458,22.835236235669267,42.18288311513462,16.44097315693685,-14.63772308127414
459,22.98592788262481,34.36089637230067,5.569386049131367,-20.69304317739347
460,23.889577652030496,28.410467058955405,-7.578500723558129,6.357003094748208
461,23.537481309551737,22.110205928637583,-8.376663897651106,35.3221950069283
462,24.418813732014076,15.333981484709549,-5.348986760757015,58.66424529718743
463,23.57968528179895,8.676538668298901,-0.2596010692932395,86.10861272947203
464,23.19736403724605,0.8105468284518906,7.205584809726389,91.96951572803324
465,22.298428999316897,-4.892554557979825,23.331854950119823,89.05722700049574
466,21.60794836390336,-7.260482844683697,40.33177166915898,72.72055638646961
467,20.68480709582338,-5.244518713093893,55.61515486508384,50.8041032676321
468,19.37294056922513,-9.058531786458955,66.82982739374361,23.872383278195542
469,18.193283062966515,-4.538183646978766,71.32647514975486,-5.033893441130225
470,16.47822344185937,-2.3602826686539267,71.22301592871563,-13.926724650564296
471,15.331305539325315,2.2882024821275166,61.66110081351447,-20.87853799624928
472,13.548205739984684,8.642439697032504,53.79768625916013,-2.306614678968294
473,11.80512124755395,13.958943488736036,41.8125641048263,19.070388928033744
474,9.999999999999282,21.45113344943,26.114310546298395,47.5616285626935
475,8.260313947697451,27.80959848471657,8.813545811672771,79.09677611593051
476,6.646236071430462,34.35809752309881,-1.7969402130132686,84.5145330247933
477,4.813365086790033,38.73013190925498,-9.885580099459418,96.7202912641826
478,3.27674697129582,43.329256347002975,-9.601206426339417,89.0285709107301
479,1.5761500849106458,44.69407974132192,-8.954703736315793,67.20982981223615
480,0.7584793208653657,48.25691124775,0.8550756717588506,38.39917799768244
481,-1.111367697694735,46.69773758593922,12.375632695236703,13.27107340068833
482,-2.253812263889498,45.035507021414205,29.01591474377304,-3.6063910167168975
483,-3.0464674492151005,42.860292744934064,46.02956659500395,-14.27769437453503
484,-3.779257607699471,34.41015707531784,59.34584454951563,-14.22906324447223
485,-4.544701979232711,28.62958609825041,70.12148655093912,5.834103183379988
486,-3.81667594901017,21.97734390078672,70.41496712284749,34.37886504635212
487,-4.507123664044235,15.003820505269964,69.18499154824272,62.24604579933455
488,-4.399486938661042,8.611567760824204,61.15550408256725,81.58089073786795
489,-3.13565401571128,3.317100662012688,49.1449738692034,86.27782618578755
490,-3.3331468550120054,-1.0779815917302464,37.24076834789075,98.8868396218026
491,-2.3227101342231222,-4.807528949015833,20.497608782566616,81.18799160457479
492,-0.6388170836025076,-7.4029989114404415,8.651238148787009,51.23606736602453
493,0.6348851319547748,-7.113265753199393,-3.59616601944348,23.162548129603625
494,2.066804256824125,-4.032865661682173,-14.982088916896842,-1.5522450430791253
495,3.1814291849325462,-5.253528587024256,-8.393093990974535,-22.55838836736973
496,4.654455518072042,1.7686720023680316,-1.0341707759593888,-11.369592480118008
497,6.636552805567604,7.3153088982809535,3.756938140819255,-2.255715010539987
498,8.167724513584687,14.672547875538008,19.836253019146167,23.98590875106729
499,10.00000000000079,21.2774684738964,34.848851515347924,46.89623647258801
500,11.78255649610986,28.827421510968183,49.94006729926007,80.26225433266715
501,13.549753426877787,34.43513467065681,59.0683790844209,83.69228696909326
502,15.209556739256683,38.58830102531254,74.0023934348207,90.7103961908903
503,16.91195245992823,44.87259105525486,69.58651521799483,91.36331979170144
504,18.366375568003285,44.88220081877233,73.30950558457349,63.73589164908316
505,19.275982455305893,47.12255301617007,63.25379425581404,38.59892105085727
506,21.291414638467387,47.58702217767158,46.09796338583697,16.67270190226889
507,21.71580233844773,46.08045469672992,31.24604766233517,-4.467180112199152
508,22.69604390752365,42.83708739292983,14.813686626838027,-25.241438862422346
509,23.725850988938603,35.66168739843235,3.057975205489978,-5.3262905280206425
510,23.62883051867665,29.50126224928741,-11.908281883428224,13.775853438650875
511,24.56818147910335,22.191037105627835,-7.582506115197823,34.879094927206985
512,23.61634260343285,15.047938035675864,-10.816293225394205,60.489527140955495
513,23.341736727738454,8.846336982749667,0.8586008319864966,77.07641107325574
514,23.59315248030212,2.5866652413671893,10.405579907480387,88.49493078514766
515,22.63260036824244,-4.812411260588686,24.172313607924508,98.34698747571896
516,22.18622467167644,-6.3781838475195975,39.18207101333448,82.47170252899626
517,20.549081000319536,-5.635460733806532,56.46222329375702,52.551741147066856
518,19.2120974269932,-5.728781759756981,65.84251987580497,22.399327111145737
519,18.24893682279175,-4.500082721186168,73.05408206173738,7.05324271170722
520,16.781020134917462,-0.8697086004689112,66.68130742465485,-5.656705090703049
521,15.429091354555633,2.0754559386957645,69.42882626299411,-11.654158814320413
522,13.469999143356604,7.7773368044969295,55.95430703606908,4.106393757954066
523,11.79764001881753,13.879785846404088,42.000004672810135,18.809648222115797
524,9.999999999999194,21.52176809447388,26.123594596278878,47.59344138228096
525,8.16422199430825,29.20271707977942,10.576284536669288,78.53342503427234
526,6.342111369510214,33.95990481410198,-4.946600927279313,101.28821372303324
527,4.760964264861953,38.72097546876032,-8.059591346541644,100.2387578153954
528,3.1686676882149145,43.68922848828325,-8.78893602380787,79.45226366361216
529,1.8539579291730848,48.851252972807714,-8.575166842953728,69.17848080758316
530,-0.147338064249439,50.53379060879779,-0.5378501424399076,38.44859500084285
531,-1.1903704146129002,48.51584641545031,14.545082293456865,11.076313988573284
532,-1.3548994145204991,44.49047682547368,28.85495288579219,-4.010485730233583
533,-3.256929627175653,41.8137658396292,44.66581022085598,-21.87294872641048
534,-4.1178106870580375,36.41025823997344,56.59578347449565,-5.362909776432261
535,-3.2187994681271928,29.343851921931616,73.51030738369761,11.073712919610998
536,-4.236621833020703,22.10266940991678,71.59251444122583,33.91470379384643
537,-4.734427559736517,15.315043617998189,74.58060276140222,59.00256221342251
538,-3.6660245452685674,7.916693703502913,64.20115532771703,80.42367478303974
539,-3.925079336541785,1.1101645683564634,52.63042441573028,99.10664971905176
540,-2.914134002651446,-4.6147313005845625,37.18361358694671,101.19342307207364
541,-2.053579282162458,-5.650040558613192,20.379744201348807,72.4308582234629
542,-1.1269686222220443,-5.526937689839656,6.761420257845586,54.12487179207472
543,0.1293577643202184,-5.929933180227529,-6.535398621620196,21.965614605789767
544,1.5850160603540695,-5.767721939349819,-12.08975914697045,2.25732775995278
545,3.104609078318733,-1.033046132634695,-8.430754026783298,-13.004808536749572
546,4.825455430358277,0.610673448204075,-10.151212187185578,-17.177770077433713
547,6.326719290792241,7.183460380898705,5.676551727490281,3.7501660034914224
548,8.220108886755488,14.380318355170465,18.950923391066024,18.43715535412099
549,10.000000000000869,21.426155492926053,34.00977977203039,50.01774634050992
550,11.814389992007914,28.894019516672063,49.93055177350628,78.90261530193374
551,13.54102816813175,34.93914329659851,65.49463380651729,91.97653392912136
552,15.098409156920908,38.71539557909513,71.84127109993273,89.56244475395204
553,16.909303728301598,42.333832115149335,74.17367638204277,90.28726852320816
554,18.432465835833703,46.58587525643837,63.91269577265674,68.58364126580892
555,19.91060674914329,47.12238811928477,56.57285650676645,38.46083913569904
556,20.86679150750715,47.659862066141855,48.93692942175716,15.222585121439
557,22.146502552057605,46.980190246570274,31.208733351418967,-12.383730839340238
558,22.19774157297508,41.292345584731095,16.00347984473229,-19.94216338185514
559,23.27714989258996,35.896358187393886,5.251492264382982,-13.003154715867012
560,24.406151180464224,29.64085717441251,-8.68792771282859,12.844435713889188
561,24.762101893786514,22.236860699293587,-12.49592249215288,33.596102791701625
562,24.04046710833052,15.133563134210792,-7.759368650741969,61.26154111887296
563,24.45579457617485,8.896629567828198,-2.7750774523887003,80.92907023440131
564,23.991931711876,3.059414437003621,7.153369612414743,103.46463922166744
565,22.792348344671225,-0.8637289191912885,23.525012631180417,98.59120139549772
566,22.02354634646917,-5.808466181097188,39.55176635136796,78.8762782487015
567,20.792447223280483,-5.515007831961551,55.20326706544541,51.15588370101088
568,19.72050719392365,-10.314839019986628,66.12974057334506,23.526092604699816
569,18.111744820937343,-7.578819601430126,74.35228057700758,-2.832100970868389
570,16.736933823268256,-5.146378388414071,78.1287858167679,-17.45141997177548
571,15.025853635400583,2.6597694148352677,68.5905691144572,-16.14958893978273
572,13.657436123568916,7.833656351181991,59.12705015476066,-9.42656104459936
573,11.732810271131328,13.7962671794916,41.575840600273246,17.747210267336712
574,9.999999999999146,21.43220571122983,25.65204857593639,47.14371899308415
575,8.157611890130715,27.794114475078253,10.30848758082728,78.85307216986244
576,6.468502867664061,34.34000082434373,-0.6577901054961721,89.01596518351153
577,4.876417308484706,42.32726301905853,-9.332726493516624,104.71635126755795
578,3.4767026895581736,46.60691212850551,-9.518116647014978,88.33572560614931
579,2.014290530938119,46.86223714684077,-3.5410511406199845,61.227471096671735
580,0.5433480217246256,47.30638079157296,-2.432793518090932,38.80956631648678
581,-0.6600741375654451,46.60612820580148,14.706789446909378,7.02311594026137
582,-1.477420767091118,45.13749910470523,28.8541479748381,-12.981999318091432
583,-2.161558820549692,39.37533010668647,45.80384786405101,-21.16421517787829
584,-2.808243906415976,34.13571572513143,54.99907759389097,-12.210848776847854
585,-3.2770982111899425,29.319196455352948,68.98841171705573,11.642902965192814
586,-3.5984101393600554,21.980246395887427,77.58404455711624,33.97035698580836
587,-4.707079060797774,14.575574077362852,67.60443330473224,65.96006904707612
588,-4.064768870691038,8.128129958389415,60.27486928144759,87.46459061253253
589,-4.03263875008065,2.456183355682509,49.043249757897925,91.9436680903685
590,-2.9252911500508016,-4.092305616928247,36.71826466874879,103.84319734056724
591,-2.185510860422994,-5.694501996158937,21.28372685215743,76.95077025485372
592,-1.205185422188693,-9.631812659048418,3.674222053204751,54.42434590262337
593,0.6448033645739706,-10.616371033251284,-1.4214277644131208,26.37469225126497
594,1.931498594142509,-7.7186625448339505,-8.845668620035326,4.639908487750823
595,3.0211651390586534,-5.326228744867972,-16.702145646805462,-22.545189484447256
596,4.572048896501884,2.8578646707865687,-9.323577853487883,-22.662143505749498
597,6.3891930445994864,7.387033060573399,3.931577796967385,-3.859880687177366
598,8.250306419482266,14.322486870081727,19.599519071847887,23.60204418443539
599,10.00000000000088,21.37290728716116,34.59709656260992,47.23184234568689
600,11.686881742817498,28.54780830790196,51.57611000370265,69.57602983894526
601,13.636313593549051,33.632465774327024,59.07582494114809,89.27763424163665
602,15.438447421203923,40.54442626683953,74.36340052518263,88.46133660353023
603,16.955366868563665,43.381382814750665,77.9335231507034,92.73235144528697
604,18.664161955170037,49.48825561926967,67.22118214051216,67.37078318198047
605,19.82686390202176,49.071876932325054,55.52662482696466,38.86017315104586
606,21.16730507899812,45.69011391451952,45.22452669831459,11.66591067953674
607,21.64092181782689,47.21417937362392,31.205141072993843,-7.549076506627323
608,22.964895746851205,39.1132090386062,14.131717784308302,-6.243099785818103
609,22.88186563750224,36.66518760132576,-0.5576512567238012,-16.802412082410115
610,24.576492510833965,28.812048854042978,-7.617004517777609,11.96516516102885
611,24.411543367018204,22.07675073525184,-11.794709162902656,34.074319369298614
612,24.75164205649885,14.77051949434387,-14.757958261407296,60.99257315729646
613,24.217380955188013,8.29669204873119,-5.824266976080047,82.9114309812048
614,22.78892477102816,3.9741117260586414,7.439891055784944,91.99124386414846
615,22.85046399341496,-0.8733564532898441,23.42375254576997,100.09907592303593
616,22.162441272330906,-4.301127056359505,40.150303772185744,77.9013618985733
617,21.311059802295084,-8.822074195963438,54.3189229340186,54.336728009296806
618,19.816857805825048,-7.098765713440109,68.72793994542542,22.28239191669385
619,18.28803177141701,-8.022781981566823,72.00576966717097,7.915994812388618
620,16.51968896916098,-2.493557673961508,71.2715383066907,-4.578991104231584
621,14.98214789353925,0.5388639868312239,70.62886366037974,-18.19930373316666
622,13.656716331303496,6.817404926498622,58.12237025168,-4.703644261783992
623,11.843268587690089,14.896370188306328,41.457340646530746,19.90013142962364
624,9.999999999999046,21.480065458670467,26.191647810680426,47.31490831809828
625,8.30441142976655,28.003802574537797,12.36967640381393,70.36279472325495
626,6.466757611048632,35.77719386747077,-4.303846337796642,82.94177929951698
627,4.542402948540273,40.50994237586161,-8.960542997475883,89.50523856243717
628,3.521088504623746,46.3107671803789,-10.991461238750574,85.65678924049759
629,1.3943092361574934,46.64589805722506,-13.426312753267418,62.92756433299719
630,0.0195267914461432,50.770900800444,4.45660733859949,38.35320311817446
631,-0.9386677164290608,45.30272787225695,13.119457212340588,9.25161465300689
632,-2.114003149444036,43.22388829187748,29.00607738745724,-2.9616926783774886
633,-2.681275842646647,41.61822759711156,44.35264874097665,-20.114086757540846
634,-2.980229346090436,35.10493672212847,56.66916107283254,-11.61937069927999
635,-3.954204337230463,29.92253761690537,69.77257463350139,7.853055232341227
636,-3.6193409155856,21.957530787488373,78.07126292645711,33.779355109715006
637,-4.231457714907435,15.431446379928415,75.63743540479928,61.802421977622885
638,-3.7072346557713134,7.943151141275418,67.5515406116977,85.7949083683055
639,-3.507335405605513,2.003068575273278,52.74828602207303,98.8837186624936
640,-3.158194844472371,-4.680554298933107,35.730829409907024,101.79994040760468
641,-1.890183319721988,-5.086169618649407,20.50038829112665,73.8723393869949
642,-0.5257769326421116,-5.906293954407264,4.6085514386370505,50.95958930417138
643,0.5845908543214602,-6.849221317642684,-6.0114399419352935,27.288978148599583
644,1.2770340470685948,-8.575672472700433,-11.520757586947823,4.235998133551455
645,3.505774741418933,-4.983951082209845,-17.02907042612486,-15.959229166731513
646,4.776770880622569,3.2381121335930523,-2.781051015451723,-25.88220831511269
647,6.397520358613569,7.39221868983658,5.567278756959116,5.389475402054202
648,8.237260839188187,14.269073774871226,19.938267618001547,20.162496777275024
649,10.000000000001,21.37314699312783,33.6266463758215,47.72769545163951
650,11.796078694421992,29.157632971065645,49.75904381515984,73.10933779787129
651,13.448457953156456,34.31491134637006,65.63224437300195,83.02911135274512
652,15.034216869548292,38.55428404847883,70.06505682059074,97.84834910472956
653,16.746509877858642,46.15747616315035,72.18475771611321,85.60428259371477
654,18.59863818239723,49.709915786342265,71.61689545688677,64.88824061966568
655,19.86840990558905,46.87346566326377,58.07201097522436,38.56205899297687
656,20.397900442086048,49.393694434201926,45.37095867508439,9.235683740346104
657,21.84677227297144,44.6365587825575,31.09737076070324,-15.878316329028891
658,22.699441491001707,41.703430309299065,17.174084808325233,-13.672552776832228
659,23.09730836916121,36.48406691090832,-0.2488027008909519,-19.21142832413088
660,23.564743973940125,28.221554446171943,-2.3636493514388874,13.645861702352306
661,23.86899040046638,22.243628161431754,-13.366270946501295,34.0323872212143
662,23.416027196290745,15.261086557329651,-15.893350064838266,61.65054712129096
663,24.556967010932887,8.728452834401105,1.1140520752570635,77.6224000307111
664,23.991579447900385,2.705979703292183,9.234840382642265,88.92257750606403
665,23.01843092234884,-4.508495473521638,23.81211943193278,101.02841407498886
666,21.65476773887676,-4.91177852712725,40.171871021095725,77.11788215340232
667,21.319509445195628,-7.544240238503779,51.46104370382558,51.04984240109646
668,19.829179458833828,-10.269829161964278,60.28271088087867,26.60110666111036
669,18.33380792971468,-6.266034307063286,67.62273946625953,7.685114326045749
670,16.95161338954448,-5.36137720748043,70.80634747365545,-19.69893138674483
671,15.381961962689427,2.650587361357328,65.77679646500097,-22.456988101538464
672,13.448822369508187,6.970148190631841,54.217583085413,-0.9712309649433096
673,11.854253112425775,13.926611397002642,43.122716261215416,23.154257336066458
674,9.999999999998987,21.361975126396565,26.22448399986003,48.96420895733449
675,8.180585655885963,27.595629639787045,9.348316720865247,80.92163589766824
676,6.497806074477987,35.36546412837956,-1.4174236923040766,96.59752566324212
677,4.6192157193286585,39.5146115006791,-8.83411442200751,96.55723073020464
678,2.8779667404659524,44.83701293285315,-16.904993615990996,88.4531454189667
679,1.9710908600043384,48.96631025012008,-7.7083530903965,69.46869769891282
680,0.5490519070929629,47.81674257350524,-3.0831550047762946,38.58284861290909
681,-0.9974131565009134,49.89186236141316,12.819641145362333,9.494284305872984
682,-1.7979054766383875,46.01707025510616,28.96937061520397,-18.07509546244828
683,-3.250808855612988,39.96322398921538,43.548062842883816,-16.847801759232723
684,-2.802603039346017,35.53148572986178,61.54287107303247,-14.09503681865808
685,-3.442835557797414,28.238119731623843,71.2637568504091,2.9583502919749805
686,-4.595807294719105,22.25127087220206,76.50715550594484,34.41472152709956
687,-4.012784332349973,15.09236038517974,76.7260399379119,60.96353486779179
688,-3.779267133824371,7.460951660207529,68.02834928201176,82.34718081926135
689,-3.6010728065931463,1.4084878230500522,51.631369751041234,100.0069676316474
690,-2.5181748403895376,-0.9652649522915802,35.79654972021503,98.98226387592806
691,-1.7830655738991703,-4.772442533478376,21.209235728859056,72.42160435369044
692,-1.2904414240036353,-10.810919782415802,4.097015592423436,54.9977123263095
693,0.6072511126702569,-7.420963813605709,-5.44179557736247,26.59046288818408
694,1.2809440888618069,-8.55892041534116,-14.003208868073443,4.2875568389782615
695,3.3355732883371543,-5.003195967631374,-12.179331762053884,-5.490687005294035
696,5.0099911013888265,-0.0905764613800776,-5.636778266148745,-22.71204194697708
697,6.519220078376796,8.632727249868124,5.267082543484765,-10.30458747596711
698,8.261361984112433,13.902328695794242,19.25494935710716,17.51989242344929
699,10.000000000001032,21.438009098705173,33.84310902982612,47.908417725869896
700,11.719976080837217,27.652849931597576,50.99324684349679,68.02893981766354
701,13.612691646668228,35.84662375979403,63.23064429037776,92.8699378574862
702,14.9972212876588,38.60449894246976,71.60549440039836,87.43312118184136
703,17.00939292900784,45.7464772530568,72.35613691493327,90.00504480148123
704,18.622162103083497,49.12573500830144,74.63480618727466,62.697371342562974
705,20.00427720452679,45.85730793909208,55.60273564349284,38.41190059958024
706,21.134606027585903,48.08453673780264,44.73874033250548,10.814744598376157
707,22.389370313260898,42.479884632120886,31.2186066489313,-0.7439331290460771
708,22.978603309156163,39.71763616394665,15.860003377098188,-18.50099381810945
709,22.88399901932763,36.07171860324904,-1.4219530479919094,-0.8987759578124965
710,24.36855157413965,29.74260745277936,-7.549839673243724,10.993932371056156
711,23.71409813914027,22.01823953494264,-9.993303372363386,34.592086157180354
712,24.1085485632342,14.88314461149597,-14.183199940263506,59.47358848869965
713,23.543318193875848,7.167991165673103,-1.4505600626332864,92.45488034461586
714,23.367752267037837,1.4152225831615226,11.17813826186838,103.17981838207444
715,23.23414438912484,-2.662908483648099,24.068475569663743,85.74875829663411
716,21.579733562689444,-5.3708730755303336,38.12143772763062,75.27660031988866
717,21.111280658043903,-6.465818211777197,53.7288252369769,51.787086737455866
718,19.61122360205864,-7.029774291376793,64.06707126300861,21.95354640473236
719,17.900464937547728,-7.403872136409504,66.04682427820694,5.5425098921448
720,16.627149264475275,-2.320112161724115,71.51328081579763,-21.393275708385715
721,14.956601183894364,1.3811218999682815,70.7910427959763,-26.242538490737616
722,13.501967596991292,8.119371190329899,53.51387765380824,4.619125237869895
723,11.740339770443963,14.04709144808653,43.13024341668002,23.11494895543911
724,9.999999999998924,21.47793390278362,25.47659583907218,48.484319848122766
725,8.263457144410479,27.56747918491743,7.833025890934444,80.07008368003949
726,6.386663515517455,34.138391477430766,-1.0026462343575986,85.93175391308458
727,5.02750394994185,39.72668842440089,-9.188965049016057,101.13505601054126
728,3.2241365660164165,44.246753905469134,-8.385597858868344,86.96906542200954
729,1.7718255536193723,46.57991262863018,-9.424944313605051,61.96326680281378
730,-0.0669614172708623,49.205705448419046,-3.9447002471064536,38.704928998527095
731,-1.3121723129413103,45.16432776059256,14.312545415724378,13.90644438940386
732,-1.8305231147967511,47.39121098754424,28.881229639691497,-0.8341620229874565
733,-2.8716989785655027,39.33603995635279,43.90199774051059,-10.456269987703877
734,-3.194756833980684,35.185774979061435,61.36627240436041,-19.18052670809516
735,-4.183687858554212,29.61589360354354,71.10542608036816,6.744571933963464
736,-3.973811692700432,22.32791248844749,72.49039463493975,33.89773685786746
737,-4.303370820470693,14.885991677946617,66.38415168917216,64.91055597829751
738,-3.370686901639928,7.867937835125224,64.62480028125725,78.37449339388075
739,-3.696687768230415,0.5776344033216922,49.63855518836873,96.06462217993855
740,-2.6378539524595066,-0.5407445072053889,35.875626695459424,101.0043089459075
741,-1.91744577685869,-5.722915013354896,19.13076039728688,73.75281418397819
742,-0.8229589463687041,-7.5161703917370595,2.985521843086488,50.95468162488882
743,-0.1237435690621815,-8.09906065648201,-6.656576738728745,25.95321260617707
744,1.5768547466083709,-6.442790255775762,-17.31747873204953,-1.8293145494287584
745,2.951247279545134,-4.358384799722572,-10.88931739862953,-7.899485650198557
746,4.9516545227326345,3.394379976745885,-8.741250092640584,-12.743078591654047
747,6.37377947284994,8.106337109904397,6.360712084194404,-8.212470780341079
748,8.15300130179634,13.926447357644829,19.812038999143216,18.09160981539442
749,10.00000000000118,21.533319322584397,34.593042127645795,48.4825367179517
750,11.758802196379534,28.124909960806125,49.072929988615726,76.56547893587506
751,13.430381785289066,34.862710059956825,61.50908777312203,89.48369289729887
752,15.152278768506676,41.68251624848621,67.438962935587,105.69002331691934
753,16.900975814589046,43.747083473958,77.60167918044255,79.2347497525448
754,17.975092690646044,49.5082386792602,64.25418434823041,68.11893975649542
755,20.115125555914155,47.46400771353552,57.04285758531002,38.54264401456526
756,20.402055390649394,45.49552668170921,48.82802220622125,10.727930998950209
757,22.52780883704162,44.677255350066375,31.17914931036136,-6.445696440311416
758,23.13051835993264,39.46232001693636,14.91983180919883,-13.882885875640028
759,23.12908849792177,36.36144156983147,3.256252391032312,-19.09685438975083
760,24.37454872900992,28.22140504368636,-6.619606760634383,8.666027907756458
761,24.639220742157423,22.2262096967606,-13.869612187820003,33.38831232733584
762,23.446949636591626,14.97075488210436,-15.264431237458147,62.42420128315101
763,24.534785062868732,9.009332499684096,-1.085696954720273,82.85031634755771
764,23.98398678634544,2.1731034525381183,9.18700594026793,86.1833920872424
765,22.54711756195049,-3.1593458638646617,23.594368164488444,97.435597669258
766,22.218115865922076,-8.193414766576616,38.75275245592422,76.25971319210393
767,21.184850656753987,-8.193259102316564,53.69568142953873,51.66267353444835
768,19.76378020511516,-8.04285647195318,60.87966344586378,21.865321340670636
769,18.16913898341147,-8.97783596125959,73.46932998397894,-6.991649721315802
770,16.591547994312,-3.64970851573959,75.54428240887626,-11.891477217839125
771,15.362470201596183,1.4441025586807503,66.64462094728101,-24.474780057258315
772,13.558506458410466,7.744160508002874,57.80143700346878,-8.545178420002202
773,11.695915698566113,14.810878443942602,40.90455580349269,18.891820179829647
774,9.99999999999888,21.304459295314764,26.216563195839324,48.49879139033688
775,8.286879336526045,28.78339409691189,8.792565056892911,70.93123239376065
776,6.60728730791246,36.0447797194098,-6.426866919459286,86.69134459261952
777,4.922333951931328,40.85836736963724,-15.467661049998924,103.416702166841
778,2.9054567170360937,43.91661106107101,-13.431350036456031,82.26950660840282
779,1.8688730928554695,48.45116135212413,-3.230556908035851,68.89688083158474
780,0.0889084963083401,48.9069586194308,3.89959237841396,38.89339884532743
781,-1.2502010640078307,46.19254816462998,11.789422559641118,7.202316495354289
782,-2.2643868145198454,43.27012834109728,28.793142235452358,-12.708430130903864
783,-2.784365803966523,40.62114428139682,46.504143055850896,-18.17813633437012
784,-3.7273937933902577,35.333500106294494,57.80521755875389,-20.32398459965387
785,-3.798545220390819,29.26525641233617,64.78194107372218,1.5077948726473809
786,-4.525772711431475,22.270801201388387,75.74112605203402,33.63478894431241
787,-4.357213023526629,14.783985958019798,68.3068223952687,63.5732152195841
788,-3.51039545800918,8.951626431237814,66.15271766590584,84.02389744934564
789,-3.118114129952721,1.9627390689831292,51.3671387464329,99.72263451445338
790,-3.1186385946622157,-1.2076896095655023,35.94263293331851,97.38902141082252
791,-1.3797738298945266,-3.5800521501880382,20.43335806832772,84.52016642933661
792,-1.4347004990617285,-8.247732058945626,4.529023213291794,52.98979067251915
793,0.0637896921454199,-8.090610565745308,-10.194996561189363,22.87475796834181
794,1.3027458418149411,-6.595139392320139,-6.528388385377461,-4.3381468836522
795,3.0657139240076656,-4.673427374710631,-14.86983960143067,-20.878805311546444
796,4.943124911650445,1.4014087085876668,-5.248662670806908,-8.642092101424446
797,6.6424995867233765,8.604023095846777,3.511061917147828,-3.0862013742509404
798,8.161710299225787,14.027399682069642,19.248522063786037,22.008183444367443
799,10.000000000001192,21.35418472868919,34.404251026444,49.53909627541712
800,11.734421874457473,27.81236952029208,52.35057299359353,78.65917431192213
801,13.545480489610313,33.668887110819256,61.9749494589786,88.14178299401354
802,15.13296663960296,39.38914357475092,64.27225498551438,106.65838602982986
803,16.810828758390812,42.34946992882934,68.01777645266407,90.18652064143484
804,18.11532897928476,45.012690328932905,67.3102351361277,71.02820736425207
805,19.974887674197014,46.87030626887126,61.02008012364004,38.50199234813832
806,21.22046486306216,49.38803225295558,44.74299379495408,9.25778733780498
807,21.447581428106325,45.48112281059287,31.216578529496648,-16.50174053848832
808,22.170953652882623,41.43998312595702,14.116248197938289,-20.55543303663161
809,23.252877749277,35.64756599691146,3.249966315072566,-9.586391218005126
810,23.498509454545164,29.14719273924884,-13.432570909363974,3.950823936949888
811,24.414397633686235,21.968205163923678,-16.552588556373685,33.546321257415464
812,24.484429318145423,15.20490980523792,-8.069768154370927,65.4286399322576
813,23.39667365870756,9.22322048971038,0.3014443032278073,91.00942319366666
814,23.697513115068126,3.27914161432782,8.153559916522372,89.8835245204498
815,22.452878736994244,-4.627603613896088,23.99909900704811,102.22114200857928
816,21.92863967132027,-8.349739262517478,40.838223066999845,73.17628696550754
817,20.379737289823595,-8.198003312216407,54.5282012419965,54.84900234346756
818,19.96742390803057,-8.38687073900838,62.34016026572012,22.42667577448707
819,18.43206916875684,-4.332172438235279,72.6736619953086,-1.5846887491601436
820,16.762698219622024,-4.69889438075889,70.4587467324577,-13.232853980659344
821,15.112125972895496,0.7540096012657074,62.4744298363877,-5.8037060301324175
822,13.354461106797542,6.8143528618083895,58.07336042317758,-5.215842642175019
823,11.6918619936818,14.515002903466645,41.92462519475766,22.247460321273124
824,9.999999999998746,21.453509362064647,25.34896585358968,50.13506653206119
825,8.197509754596398,28.9766794008598,10.633747496223773,71.17719718654642
826,6.478177515533041,35.236348129228496,-2.8206667280076374,93.13112453154352
827,4.881951515950877,38.45805274127727,-11.079671824817794,93.9182931899245
828,3.425930159377533,42.18909855988075,-12.231098374025224,95.26718651415044
829,1.7097058705819457,45.21143440412308,-6.437863726421853,64.90401697931429
830,0.6071456827053883,48.81381963805981,4.116028240593774,38.77517923036433
831,-0.4564662804271098,45.73347639104683,13.949587413239737,6.38443472361346
832,-2.1013302759517405,43.25393321139573,29.07315686389181,-11.835017356856454
833,-2.315820588094072,40.89675028038171,44.0063634013063,-15.869635472702804
834,-3.372710106209846,35.14754810631419,60.73719205623368,-9.7454711154165
835,-3.289352510151881,29.519604228374615,69.81651703703457,12.658662502368712
836,-3.716447406628365,22.12452762832119,71.29530576981495,35.34487215518275
837,-4.229937076799466,14.612280915787077,67.3098109867266,65.91867798520389
838,-4.081281712837425,7.754413702281376,66.86835595043357,83.79952826627331
839,-3.144427821798533,2.864554440809904,50.59256025008297,98.82946922826576
840,-2.8356635344984102,-3.732977132638808,37.33093873722351,92.5500202872468
841,-2.203827241083397,-7.532206919214989,20.11812456050192,82.90848879785158
842,-1.2790902672511957,-7.765124085170044,4.6316333788010695,51.76963020252735
843,0.6556129185679413,-7.077677231025074,-7.396551241188135,25.295298089759974
844,1.9070136025974629,-6.698074368031222,-15.220877453840975,0.9908094862242932
845,3.1929486599407912,-3.793305769788749,-7.029268658750496,-24.73318777344123
846,4.903098169045307,0.4259241022393389,-4.403483989990967,-14.719023923701291
847,6.592208277397456,8.645719718737567,5.224957692234025,4.501699847693459
848,8.168405593944648,13.907864236774827,17.337795391772012,23.23413732054819
849,10.000000000001316,21.30260397009649,33.78512269801058,46.82845643703005
850,11.782822638752805,28.063805335136568,49.25504954718331,80.3727949489016
851,13.398232822314728,35.28130599974027,66.7662736683242,101.14224646118764
852,15.29856346393563,38.57739932620713,75.46299364616202,105.23965330138824
853,17.11403692116119,45.39835417935357,66.07031333922187,79.66558886063939
854,18.219284507737605,49.81111609415778,63.39471275677066,66.01733713422517
855,20.07909004188957,47.96220543568813,60.87129266877336,38.76451783765367
856,21.137805349200043,45.26552059690026,46.16537230227735,11.738550632500534
857,21.756890556203444,45.64469760608098,31.18941916711082,-1.6966250471515778
858,23.39287293250375,41.999157943229285,13.447886108175265,-12.961221397144456
859,22.89088119676508,34.56090688362862,5.964876428782805,-4.848841930410167
860,23.90434025601835,29.41889191614683,-12.161508569736853,12.767168018833292
861,24.77102861051957,22.23942052394225,-15.054931004679853,33.44664039526364
862,24.73394410083787,15.37149899981818,-8.614122383921824,61.24461649237729
863,23.71204699115536,8.304025470827886,0.7007337669289733,83.50568981445664
864,23.07115296871113,0.6760908026834649,11.28487355933586,106.82872833739144
865,22.3611054873893,-2.3638366773424053,23.714883452547237,101.35002951487256
866,22.348522160615893,-8.719489411095008,40.44049576564905,75.62623394749261
867,20.92753970146249,-9.34425090372612,56.23042776235515,50.25878774495871
868,19.608073203353165,-7.793529858867668,60.3638820592904,24.22927411685884
869,18.267048686105888,-6.987348321645634,76.14563849760574,1.870834410382436
870,16.769742527166716,-4.238746543653484,70.46072383409074,-11.437892259564194
871,15.093744595193222,2.2058103713143997,61.75258477518351,-25.54623921928615
872,13.539634176843276,6.836891946181069,58.52405885494008,-1.9508702166737208
873,11.771743584024762,13.946203333623256,41.8974174009466,19.11756817645221
874,9.99999999999869,21.399415182764468,25.80137192937241,48.79349133806629
875,8.312225091442443,28.370189375255634,9.248602410752408,76.89379742515723
876,6.327623226279703,35.55767729491872,-4.752704448410952,82.79072881374863
877,4.888172535030731,39.12886656674257,-12.059737369399585,94.3686701354282
878,3.5021770173146543,45.75774891668728,-10.159526079339996,93.26886415761322
879,2.0917266749564103,48.82798501151983,-8.82111906731403,65.61278505003918
880,0.2294388861053811,50.04974433243639,-3.3279740119927226,38.73082074145983
881,-0.4259431193016088,47.3551859948069,12.015492797299054,8.504081075543066
882,-2.141412380701871,46.16694098924201,28.83556316951516,-2.5120601737066863
883,-3.197950847838305,40.742994553179145,46.17542246981771,-18.484866997446304
884,-3.054714417668025,36.31506319723145,60.77863781068554,-10.532748027468536
885,-3.2583056397449788,29.88601969204214,62.88255809420561,7.725649452356457
886,-4.397278857775486,21.934358626111475,68.22599566242002,33.183647132684825
887,-3.8783615916744423,14.796656889189856,65.35946156987183,66.39243168456869
888,-4.01897990938126,8.645067708206149,62.7423460814625,76.98280204525034
889,-3.8376294603537104,0.6074322129386402,51.07742702019618,87.00961183223501
890,-2.9202756119778464,-1.2484681274455518,36.620283337277584,94.84746202572076
891,-1.3532933588669709,-6.132811860907179,20.80184475599183,84.25524806215428
892,-0.4626149986372336,-7.834062910001357,9.30193643555899,54.87448827958237
893,0.1269171960023918,-6.540604156157542,-7.404183460272073,23.75604151624645
894,1.273075921641377,-4.292042260890749,-13.149702744683054,-2.925743891445798
895,3.2861182422208817,-2.9067276941143056,-10.002793068007088,-23.639609794185866
896,4.918383605755848,3.002181104949461,-6.15092694438988,-10.332929922275795
897,6.5936835496131305,6.992166987799978,6.782408172745196,-4.236808905640807
898,8.23084096754141,14.836135775274393,18.966426464301883,17.82197674117984
899,10.000000000001409,21.34629980702268,34.22631024030838,49.48019382388949
900,11.789254957565094,29.153008185049814,50.67417105347765,78.77385799099673
901,13.61878552008561,36.16774847218484,66.21371596665236,101.22994179154848
902,15.364822177653584,39.9129894031245,75.19502189720131,98.91185297491808
903,16.64987329956154,42.52561970681569,67.37782304767885,84.98868372212036
904,17.912343301827082,47.823129618561225,63.37659100561537,67.60429603327384
905,20.149513470097524,50.67290907891092,58.47064620547802,38.46596659716846
906,20.9678867774016,46.68190602836549,46.686361892454535,13.772943389256728
907,22.1716601168146,43.53923217303336,31.016003765882576,-11.723661960865408
908,23.23132115993864,39.497809291195686,14.953764663730963,-11.527448093010308
909,23.42226476692846,35.505986451487374,5.093222825973399,-16.721876342603466
910,23.791711894027213,29.371803547794656,-13.03754395559114,11.48207434734589
911,23.997555975329,22.093057761694816,-7.487897996061292,33.98448111406299
912,23.475573385023196,14.659047944377267,-14.642863844971616,63.25356684719063
913,23.98657245348503,7.430026263341714,-6.887829420223149,82.17975183192249
914,23.31532406634049,1.5969323684637686,7.862837456427954,87.50731636629386
915,23.38370191304635,-0.8907799751084902,22.93008832985292,100.29978461468905
916,21.936717486897187,-5.333102003149094,39.88917263052875,80.83020928619308
917,20.900788378969114,-6.764007853869938,54.42714658761319,52.650882009829004
918,19.724267709686004,-7.231503656957219,66.03598583134142,24.255018056014336
919,18.117032378466053,-4.534879309896905,76.02680325493351,3.302699126706038
920,16.72956191804536,-1.2396684548382595,73.1772961844892,-24.079349210013703
921,15.152666500311192,2.539989354889933,67.24961892165875,-19.19699773029048
922,13.692782327321057,8.302733530075589,53.06981902474591,-7.586504423690769
923,11.689190446367949,13.817485537893573,40.68481047210864,21.910527750644235
924,9.999999999998614,21.39204625445692,26.137062739078857,47.87053097654143
925,8.166387083780624,28.935503602807607,8.316883229418298,80.61565195929012
926,6.60680290795772,33.72093188169879,0.5791865589661711,98.0296247592294
927,4.548070714122543,41.08257082848385,-8.266813398569262,102.03338600118462
928,2.896178569004172,42.616220090595206,-9.11690455312553,95.84695762622496
929,1.4568021149534118,44.95218561290562,-3.7135441393009216,61.772956821316605
930,0.5510970203040131,48.99487736605767,3.038060009256732,38.42658453357328
931,-0.6278717911475962,46.480643377136815,10.934583050590316,10.724098832416022
932,-1.7066818901605956,43.79869175896006,28.899607842116243,-10.914126078690018
933,-2.1886311698298506,40.8025469647248,45.88533857170415,-11.741408180649543
934,-3.5674097107814653,36.97176488138712,57.06669326021749,-11.488425021534232
935,-4.401478239911759,28.72405586401986,69.98493803284572,11.387032381475583
936,-4.781422802384345,22.26885413802156,69.00470707982609,33.24369517872405
937,-4.633441363542243,15.243447431619856,72.94048598291903,61.82943608851593
938,-4.522425070431817,7.973184727285165,63.6952228324235,80.20004366292991
939,-3.7162755270415246,2.3245099860798675,49.51198701841746,93.5037610236867
940,-3.4136379496217426,-4.501132599117831,36.74482631461484,98.06694186462532
941,-2.0009645515351586,-5.717234208765024,20.40699244325789,71.22147601219314
942,-1.0489596842628082,-8.005273910440689,4.357413484221308,53.61950301147621
943,-0.1592339514027365,-5.346925870317516,-9.742935958743251,26.995132545906326
944,2.0718265537318388,-7.137787511392208,-14.55138443758696,6.9411224696855385
945,3.3066399513677416,-4.361508138028682,-9.051414679140493,-3.534310423131984
946,4.776128289649885,2.454315833894533,-2.8967488747247856,-23.16726006938581
947,6.357991301795931,7.76686477473373,1.1600166792485744,-8.855150845190906
948,8.180109137786186,14.626549628170189,19.940872005681012,20.576212230840763
949,10.000000000001394,21.44275834278633,33.71135074580617,49.82419362036519
950,11.823128706132952,28.91377987484853,50.61294652706909,76.44482484382382
951,13.641190489540318,36.22516265363754,61.18621909413547,93.03791700426322
952,15.020096388504252,40.2949227750054,68.19030747001334,88.81390847542492
953,16.57931105516712,43.48482976841479,78.51265163542683,87.57907551228027
954,18.585416893909176,46.9165928350737,70.34263644219504,69.31125983023038
955,19.98405416857817,47.97512949587274,63.37898307534029,38.68866195299201
956,21.05337171117893,47.52827633307445,47.64335524999589,15.810013751267064
957,21.39161835264896,45.01822522704824,31.06642813895153,-15.522216028152634
958,23.245446297832075,39.43706179293826,16.246211099228184,-7.0313848050105605
959,23.49200243087127,35.05346229599592,2.6636960809653374,-2.8052397099878945
960,24.232279216796535,29.622213066042683,-13.443018696137573,11.21600629049954
961,23.45416576021367,21.98287693146104,-15.477948705316734,35.413544789451386
962,23.791956590420934,15.211824725265402,-5.378132716862723,63.36672380863554
963,24.275647974102814,7.52122261877547,-4.337571721857515,90.05120773359411
964,23.494831930224542,1.4118060061638855,9.766275090785498,96.48257127531636
965,22.46138647576201,-1.983887983818416,24.1572086799644,100.5831546657561
966,22.342484084929957,-3.71664131607956,40.064092239767575,75.78058616788441
967,20.377259277486687,-10.083704981155964,54.36942360280268,52.98340305257574
968,19.783423913978552,-9.15923434472598,62.40381850496338,23.720689290976505
969,18.6343441917052,-5.471653755285491,66.26148381354304,2.7782421194819165
970,16.93674157509697,-1.8089086080115493,65.85537598068377,-17.44987043722265
971,15.083779436825788,2.7021853175475528,62.30474669383238,-17.697928447458146
972,13.676313362782336,8.399522781006164,54.071226847987,-3.0330663587836497
973,11.83643082601339,14.27377934760804,42.88639089130567,19.69619498262959
974,9.999999999998565,21.305229616615257,25.230887688143568,47.44728898589709
975,8.260374319894748,27.94167083085672,12.106059095651446,70.30791557303928
976,6.457565025470871,33.979685505077164,-6.55881263723267,97.39824758466648
977,4.958702902143348,41.61772907414871,-12.385592624389751,107.02244935141292
978,3.198601942656864,44.26690918198665,-10.005338145976893,90.76177854908448
979,1.550572355540757,49.678927687812674,-10.006164760762374,61.66640951565424
980,0.6374910389523514,49.5180786264426,-1.6134181551309617,38.48629559172503
981,-0.5690823798984859,48.85244028038648,12.675970515861293,9.371097184202476
982,-2.405350165726009,43.74596782053338,28.93561701707013,-3.6587688948209873
983,-3.164231299446815,39.41125973906513,43.32162378233949,-6.4684854531775
984,-3.98280450001155,34.37119365370066,62.4536646510464,-1.9746084904085064
985,-4.277475396180794,28.49698379053116,70.29228970322809,9.026798149977136
986,-4.450191662379233,22.24811354285643,66.37900409683948,33.43004800707111
987,-4.214120550294464,14.960444727871783,68.38914189561393,60.86139822055239
988,-3.405569350755989,9.268563335175877,61.13063282581348,83.13654268671146
989,-3.829085905242257,2.764107872718636,49.90328043834664,85.66495544583341
990,-2.887039864556176,-4.468814516975538,36.449073788082586,82.74667585441853
991,-1.468971720860928,-7.973178453379425,21.645093862867284,72.7516340094028
992,-0.9818966760329796,-7.223718145166394,8.50304276925053,50.23723244909865
993,0.7100476002822056,-8.613922057133198,-10.020061681333132,24.370108592532794
994,1.8041746085396488,-4.035474330501341,-7.064312015749934,-0.1049373092758898
995,2.9500988185361,-4.841715153567801,-11.324692090287384,-21.874852979681933
996,5.022581845493445,3.2749721322921026,-6.459191494100303,-4.385356004821368
997,6.502137555126314,6.971656230530165,0.5931878421029708,-7.120464403166274
998,8.181813891087183,14.170623579405651,17.4389384363116,23.679519113494823
999,10.000000000001462,21.529059757704815,34.08474254673171,49.24898621281737
1000,11.773293819043111,27.615433020590487,47.52993948632634,76.60025181664327
1001,13.40070285556498,34.6597683067682,64.84620354836153,94.0122041623298
1002,15.33381765003162,42.01714331026881,75.91475707227252,88.7190049931419
1003,16.70914960026144,42.867539994119326,69.88508427158679,89.08220506042038
1004,17.96795601670285,48.016379504320845,70.57032852137957,61.88508583533067
1005,20.06641427598897,47.48825686593169,63.5911088838886,38.40810917371543
1006,20.844350722659957,45.309494493249616,45.13731960620602,11.537040707954096
1007,22.077381472941436,46.51764777227213,31.17405928926009,-2.0724709485838417
1008,22.252827940173383,39.88659952867194,16.000531455044786,-25.8213061274856
1009,24.0919013575814,34.205014029835645,3.924182645835078,-1.4148661895638384
1010,23.41553427320397,29.918877689785937,-4.283668899205175,13.582878117238636
1011,24.076747205596984,22.230717348352897,-14.519326106420912,33.44089056804227
1012,24.776124631279565,14.607158807703003,-14.567821949397924,64.90948930853617
1013,23.516423319901616,7.362174087208604,-6.7767524196228806,78.51258965186676
1014,22.812496054582297,2.724615946148859,10.278332275501867,93.88736835191494
1015,22.439696395555867,-4.261664977656277,22.8627212318202,95.78580986684165
1016,22.199184744697057,-4.31844680415411,40.380453563864414,72.7586884693136
1017,20.519612267548744,-9.30848009447368,54.43925305190511,54.21561050398214
1018,19.28714049404068,-5.383250560705022,65.90259778606429,21.696099228499037
1019,18.166504449014127,-8.225545224717571,72.17121138029952,8.132543164202126
1020,16.698815121764245,-1.0200602142958817,76.19227560893444,-15.493127786459382
1021,15.325439864055015,1.916735480687727,62.32882845317626,-16.95552886711527
1022,13.489616348401697,8.575456874115124,52.7841589410228,-1.204115560299449
1023,11.742440315017596,14.766069529450313,40.73899428494012,21.788686490057504
1024,9.99999999999848,21.432466588714178,25.847710751360008,47.255113959682525
1025,8.26142753042281,28.213617334043303,11.665658260324667,72.68266354244213
1026,6.457772529088702,34.66366489901658,-4.856625296850638,86.16334626516247
1027,4.8390677122649,38.89416932244774,-9.833708369285516,103.6159322610767
1028,2.9562009949569505,46.05944270195883,-16.961507249163134,91.95295161073189
1029,1.5113090342826396,45.26307353477449,-9.494622844091111,69.9404794488017
1030,0.4061821530553917,50.86416004857148,0.9535626783050652,38.45653083776001
1031,-0.7099438407173011,50.0326285902302,15.526182316627937,9.760704757961683
1032,-2.0305748864566446,44.44645198497852,28.836515164759923,-13.46776978649715
1033,-3.3585827159822923,42.05779287114276,42.56603467354384,-14.393816234592173
1034,-3.740183004259791,35.110611269587054,61.23195895457955,-9.057244245438064
1035,-3.2087950173078017,29.367451584762858,62.28453012470007,11.238245876603957
1036,-3.5178119554658736,22.22746278214762,73.66738770766588,34.195640686980084
1037,-3.5216480297584933,14.770859138197762,69.43247425196819,62.02599647070839
1038,-3.346180513062105,8.60951393774165,60.153005528774365,81.5011374147893
1039,-3.591757143283484,1.822556186184869,54.029439339518575,102.86390501825974
1040,-2.2032523361144154,-1.25103836365615,36.50026758861169,94.24959457468648
1041,-2.356157803587722,-6.26299063746696,20.314557271831816,76.08272718493893
1042,-0.9972793962359124,-10.338659681661309,3.786167678947532,50.74760432532294
1043,0.1726817484616258,-8.112182404568134,-6.608254927792352,25.283689322539665
1044,1.3524898486530257,-6.724029807233006,-17.119073134380976,-3.408040544523132
1045,3.5138674586114758,-2.41803564564502,-12.047475905513464,-21.604813677714567
1046,5.005977368211083,0.2518129560511504,-1.9669688758063408,-9.553048923420384
1047,6.646044335526453,7.417209833679205,1.346758919339749,-9.304188732694987
1048,8.226741353599412,14.656296123618292,17.797637796110152,18.62573757992524
1049,10.000000000001616,21.329312723311887,34.25735423401598,48.75325694272174
1050,11.791545559300545,27.58804937071741,46.93292798050357,73.00096030901146
1051,13.479638342782197,34.18414108976852,62.88045518447318,81.41651949820974
1052,15.363225146702034,39.3694952451201,71.49524766393775,93.9473697803827
1053,17.134785092922037,45.90952302817286,77.27103554714112,93.24462937559016
1054,18.393046408586265,47.34671699468644,68.30852348821622,69.9988092871398
1055,19.46445506968993,50.41079349318421,63.42614838341513,38.65487107844359
1056,21.145564466363588,47.93766682008241,44.69689889240499,8.409813053757524
1057,22.537451800059213,46.605172189477926,31.20076575671111,-3.533229627489767
1058,22.3717931445798,42.7039134977912,15.378822940853334,-14.52611150199278
1059,23.027011347806475,36.14509012992184,-2.457788927734086,-16.483194748835196
1060,23.203201499239764,29.854554237792414,-11.571170866573382,11.521564156325972
1061,23.60558866344717,22.15822623339832,-14.247223504371888,33.77345294657334
1062,24.163070940195592,14.894478656565886,-10.895616283080678,61.67011056554684
1063,23.468879759190823,8.434696092155667,-4.621499560674856,81.04504203075251
1064,23.83806076976988,1.9785629388062984,7.494671876138806,92.8145593514876
1065,22.805871939345387,-1.176144853064013,24.039163520873345,92.7298779221041
1066,22.028064001353005,-8.56852734304315,40.84931908720075,70.50885722440313
1067,20.958379945811267,-10.41303053864787,54.00190155803017,54.22098093153732
1068,19.263722698688305,-10.022667535552152,68.38083150273962,23.002540944682767
1069,18.52913990541142,-8.569214077171893,67.55996130869404,-2.136596628040444
1070,17.050141250530572,-2.75986381629172,66.68287582054913,-7.311008911176678
1071,14.960689081156852,2.2340389714827573,71.00269724444215,-6.899716530081207
1072,13.396205447356046,7.025252446319195,56.57221485298671,4.007313209967457
1073,11.74588879725913,13.96534064270405,42.09648631784376,18.038125723976737
1074,9.99999999999848,21.38799432003013,26.00292833089848,47.45845268737989
1075,8.315128695209395,28.734299850192983,10.451484386265388,69.67358527236833
1076,6.376651281412512,35.58618096475555,-3.848669986550142,92.49028744544935
1077,4.760202016834851,38.46608811449599,-11.191527200274372,94.79534482662817
1078,2.940155804031799,46.42199581406128,-6.700929306285381,93.78403693801216
1079,1.760159921459049,48.24527911696548,-8.492559545659425,68.9411294220043
1080,0.5374159488817014,47.832257154584525,-3.040507746352553,38.46052941858438
1081,-0.8723756400244209,47.08025795431279,11.889183266917794,17.049730346390042
1082,-1.9480250013514715,45.92507172634873,28.97707581423784,-15.671433359785418
1083,-3.228242281328889,40.08746800789974,43.22924568355863,-5.404396005990208
1084,-3.1982337782852657,36.26201238811448,54.26233856484976,-17.23734430052847
1085,-3.484776204540662,28.58003999224896,64.20260130344298,6.748871602154807
1086,-4.656644095362795,22.237759646574897,70.00434472500119,34.04272128977416
1087,-4.30749720728236,14.692574331025291,76.34955397974493,60.75123236390101
1088,-3.9858124397270025,8.360221786982692,59.59187129036631,79.82622979374611
1089,-3.8667729036005873,2.2063603813136616,50.65034322771943,102.52638407014932
1090,-3.204915179233888,-2.458863649344039,36.28657979456987,87.48678934775742
1091,-1.428596201749306,-7.795264551949938,20.88095957948501,71.63487333300652
1092,-0.5142279684090667,-10.801681861821812,3.76652621345006,52.89848122582717
1093,0.7502788353474408,-9.46469191672849,-7.975618653968112,22.634242057746796
1094,1.9733317424476269,-5.015009452824828,-9.5607165249182,-0.7998515316600532
1095,2.960266481918768,-2.9495421641785207,-17.093207274763998,-11.14962515375082
1096,4.917256500237544,0.6977994759431034,-10.637681184795348,-7.018437194919706
1097,6.388956711873389,7.34674586659454,4.559637159148664,-9.776287264956018
1098,8.304943078086232,14.71461288429102,20.06214274167487,18.48488077329822
1099,10.00000000000165,21.385871574270944,33.87010368501551,49.273424980267706
1100,11.68553902920188,27.977408957054596,48.17391282777493,73.34255452202822
1101,13.566891179862107,35.96574491075371,66.7641337532591,85.5725707589792
1102,15.280394857609286,40.122654004358765,73.37894894893347,88.31086669719885
1103,16.936070581177425,43.83112322539981,73.11038984002369,81.27158344729793
1104,18.532755203456805,45.42930867936771,66.80301458402934,68.17713207451203
1105,19.36777130370158,46.36508989989785,55.827747875062585,38.420993464080766
1106,21.03928909737333,46.180457256278885,44.2176999045384,10.941352650939152
1107,22.01719351929289,45.51416381301542,30.92613213758863,0.2006028019857524
1108,23.192138899248818,42.06630744327005,13.311945574001346,-16.593260473473798
1109,22.78465425512657,35.3622019923979,5.313393736106637,-4.12320454282542
1110,23.29815060726057,28.64304537507156,-7.811883716565539,6.433806885903984
1111,24.32562297673791,22.349850133949364,-14.066750328121792,34.62599717543307
1112,24.088805286662705,14.950809074792172,-6.249139557273644,64.55004066678585
1113,24.541519784812877,7.774081570633204,1.2179561689799492,84.99450422804055
1114,24.11902231149621,3.4023022224235646,9.690320586228353,84.97842168516348
1115,22.92534333129486,-1.0134475005040144,22.69466575304473,85.5819573724009
1116,21.76178496415269,-8.455635580277573,39.09076350036658,77.14536513265057
1117,20.962693819166965,-10.022401020089728,57.26814527489587,51.25722824900456
1118,19.96440013193282,-5.404965724022006,65.11150837380042,23.207152458475125
1119,18.10779981598438,-6.911489424312663,65.6220328331944,1.8529412175990745
1120,16.573613279042153,-4.075047188604593,67.50891116995089,-7.46889667713679
1121,15.344753067393242,1.7007190187911938,68.64504791838334,-21.481150915427413
1122,13.581733403824462,8.611637934755183,52.04605267454814,-7.118998866583503
1123,11.755294956993094,14.564753656898294,41.21490931277599,20.337755502954884
1124,9.9999999999984,21.44777862416191,25.970984866538277,47.82880551933016
1125,8.30143723786567,27.66911230157524,8.776126889270856,70.18848936473492
1126,6.508940128826662,34.04548239235,-2.687062630758568,96.63136431177116
1127,4.617154680991722,40.56734952899888,-10.551822466870211,97.16835371645
1128,3.096440677162981,43.55399746325209,-12.977106200861371,86.6894583742873
1129,1.804925139341071,48.80601682772516,-3.70911808856134,63.00165057948599
1130,0.281071773053041,46.13415442262716,-1.348093859577574,38.549930102769416
1131,-1.0228629619411809,48.67881596538663,14.521347166174976,9.291395986656926
1132,-2.288713056849531,45.14402144622681,28.99113359099737,-5.85386866890439
1133,-2.520018557885397,42.89305227135165,44.889240160383736,-9.036469354858411
1134,-2.8821184173087357,34.600647724441714,58.03275839153698,-17.640079998058397
1135,-3.5748709503514657,29.2505946237741,66.21582120609717,2.309290695947133
1136,-4.308476480919891,22.22986234322541,67.32109339164177,35.06411670678465
1137,-3.953433343787209,15.156009677709022,67.59490305004076,66.00598531456374
1138,-3.347553872723692,7.889526047359629,64.93277253449159,86.8336061009428
1139,-2.9962622847337865,3.38938771287366,51.39517894342149,86.87314945820526
1140,-3.1582630649244496,-0.6270001731699963,36.43362609288445,92.22475241843752
1141,-2.037311290182865,-5.431597538138583,21.84128901673617,72.94516957368572
1142,-0.3619739892888489,-7.950334408856904,3.4027915717746104,51.942847924618576
1143,0.2841446670998095,-8.36240259665897,-0.7338181316059327,27.63185683542128
1144,1.3197986599629452,-7.47487163893442,-11.186528787893302,6.595183055799929
1145,3.2389375699869856,-2.255735131379108,-12.507014646712484,-8.3229535126152
1146,5.0398270796119045,0.4504672687347515,-5.474291072873569,-8.872079148683646
1147,6.625714193361107,8.14103177110717,1.6597675659328175,2.458972921382553
1148,8.271609921520644,14.438783366258187,19.498554775759096,23.76058282400768
1149,10.000000000001734,21.507363956441623,34.566618393365786,47.67635274545446
1150,11.86072851783284,28.09421741770672,47.98218747125197,78.04254617341259
1151,13.51141178342074,33.83509084902039,62.66012558228014,83.34646656540518
1152,15.076284865064869,40.32494470385696,72.93283390525593,101.84677012491852
1153,16.983544494380254,42.365539903310136,69.91356328671243,89.9321322620724
1154,18.415867071281458,45.336175259835386,73.82801030267032,64.71745534214006
1155,19.509560446192204,48.10029272943221,62.180639625300685,38.5604676040267
1156,20.60289782397743,47.66874754536554,45.86792446376645,8.819996841467212
1157,21.795576441732297,46.84246238646188,31.163991690227803,-8.339813387054626
1158,23.260496940238298,40.309525205124295,16.275225349377457,-24.700346920733608
1159,23.53231690336345,34.94313434897546,-2.111473576031287,-12.046236273957042
1160,23.6091951022065,29.20683247098387,-12.101452368357258,12.396765309999118
1161,23.550001542376467,21.94398062627123,-17.63206887215793,33.68907813255263
1162,24.003285906816625,14.603947443669846,-5.888643648711479,58.37519082520534
1163,23.43734947908225,8.847297800189242,-2.548551489558811,89.89037531698708
1164,22.989116521635992,2.694890505826507,11.763722541025816,102.96148177153448
1165,22.87038826442791,-2.638160676055467,24.23700225000148,87.72910365667381
1166,21.49676875203988,-7.937207118010491,39.37341020933528,71.05037257999524
1167,21.207766322842797,-5.415617862388601,56.52575871337369,51.08995235059695
1168,19.49447579018877,-8.93906642775542,68.05667251254488,22.178310983022936
1169,18.67294569046065,-6.391113053551749,65.9798360605545,-6.883727537934412
1170,17.09540827195004,-1.0654506323711068,71.4596272098532,-5.437129709951506
1171,15.312085911215847,0.640698621134085,69.46874150455403,-13.960973660012506
1172,13.36616287258988,8.452596870585921,56.18978424362021,0.7421739898434936
1173,11.699238761651817,13.975804911059468,40.8069267331426,19.06494983312791
1174,9.999999999998206,21.294028462914667,25.935369460924484,49.93424518210821
1175,8.189087824692331,28.484680533744413,11.969262274252028,71.09901083053873
1176,6.470741593708782,34.18917571887826,-6.299720431583936,100.21149052822553
1177,5.030929379113152,41.3924477777243,-11.078290969516182,103.46454675625851
1178,3.2530726102396947,44.09828234176541,-15.966829149999086,91.34419814672071
1179,1.7413527871954138,49.96002762120925,-14.07064352159658,69.47053692342348
1180,0.5548494415739924,48.14155904092334,-0.8688458259282008,38.58333139182219
1181,-0.4143041872047472,46.02540003417349,10.973346690080838,7.302184598645859
1182,-2.0767356545280062,47.19391859707936,29.039736390306253,-13.525935069694114
1183,-3.374735623066348,40.29874195954261,45.61245594945457,-18.704645721338657
1184,-2.988458826591625,36.15998609989637,59.92683188684185,-20.34439210579854
1185,-3.894139550329269,28.820776263155278,62.493516310549936,9.289369602573132
1186,-4.164001472292712,21.95762733853663,66.53088750730704,33.1820857258019
1187,-4.357324380998202,15.148865782847643,68.1988818587613,58.26110130688404
1188,-4.18802465283499,8.072672762625892,66.01591102416215,76.83290236465189
1189,-3.4880038703246967,3.0187503498578536,50.97123126635158,97.39377918484428
1190,-2.3983874972884607,-4.451061396288104,36.94813476362036,101.12426154911024
1191,-1.4513733947477423,-8.114773428361467,20.73674518983813,79.67078894054436
1192,-0.8017838393184622,-8.013575239526169,9.139621375878324,54.94015401299046
1193,-0.0735724999706057,-9.57691379318921,-1.5314978202428406,22.237044390026217
1194,1.2735246962222568,-8.594516070614006,-11.998343446483211,-0.005477281720708
1195,3.517931582989989,-4.047964749689303,-9.442331444983935,-19.82693164452754
1196,4.640996188763728,1.592983758557175,-5.1045213235290205,-21.882156952408792
1197,6.557552155860684,6.5970817131065935,1.7072446502811829,-3.3450360020346395
1198,8.206292668709901,14.607088780528894,16.673684035699406,23.92853579710963
1199,10.000000000001863,21.477137526373934,33.93610084036894,47.97681893482697
1200,11.845104606066542,28.870362580431298,49.26966501802375,75.62286791048948
1201,13.454856795620788,36.26318093727927,64.98392202966829,89.99652768488889
1202,15.029659150091993,39.87137849276286,66.65812110618127,85.82543729157277
1203,16.60820609372314,42.58759425099248,77.80910179240433,83.9207026146691
1204,18.291279676868868,47.75002185339473,65.11769802859283,68.16561350303162
1205,19.69286486388277,47.38356110565071,56.6820564194981,38.4866017473051
1206,21.06381552973852,46.848104548189255,45.65843097149772,12.18378827189428
1207,22.03779950485324,45.57597123459628,31.07529093085117,-15.359623664615434
1208,22.61187497340883,41.36450624333959,17.331652540682022,-27.000937987977125
1209,23.726534564649945,34.77835212255367,2.555817962346545,-18.235560918759116
1210,23.76024402847084,28.214264336721183,-11.98028899241443,4.111991843871387
1211,23.595080744158125,22.11224071825765,-18.383445431859823,34.28577911365177
1212,23.55099815415771,15.41702039565607,-7.260174848465631,61.36469038089608
1213,24.31691240092503,7.268764845598449,-7.048264169678099,79.31128109194458
1214,23.070211686407877,2.8604536993258307,10.685800063244102,100.8272504271928
1215,22.579317615866223,-2.557275350889075,23.97909232124281,97.31823890791264
1216,21.7652416104931,-7.600848196381627,38.505082662157655,76.8974271549018
1217,21.08356040507029,-9.085357962862831,56.22468714756784,52.20454941677954
1218,19.5221465171047,-10.30981279830791,61.54446837036249,25.14912004639431
1219,18.60001647642198,-7.12336672967875,73.91707435406516,-6.583140726843013
1220,16.708026139185428,-3.547031086505047,77.10077976994494,-8.004310750390161
1221,15.31133292917594,1.8615447640871032,61.361740666714375,-5.902083987395834
1222,13.575888596518048,6.669225634176199,53.683159431517794,-0.0394969869386798
1223,11.847034666725731,13.99625055202534,41.80002473045722,17.79587491933512
1224,9.999999999998233,21.51958730829211,26.25910379440805,49.0142923028248
1225,8.169962207013402,27.604894620040024,12.198007290626856,67.77160402497833
1226,6.5850946807889885,35.00064444928579,-2.546242902557637,81.89255087117677
1227,4.824856724882573,41.50185055098275,-13.074929274562932,104.4650272270548
1228,3.1514442304450183,44.63586691694111,-12.74864641621962,85.81940751801207
1229,1.3007472062506356,44.80904346235728,-10.98564053255008,61.56671782603199
1230,0.6869794125710111,48.78534797466672,3.921539559523467,38.86868074738191
1231,-1.25996001832155,45.79131065118665,14.555062770730524,7.403053518397975
1232,-1.3583101015254844,47.13607723841021,28.94576707865324,-9.257846076709136
1233,-3.23433810428239,40.4847209975703,46.63126668335451,-17.340657569124062
1234,-3.490975776324348,35.340357435676,54.87605550074657,-10.43516989911658
1235,-3.510741535284067,28.299470831269744,67.33721462510204,4.202325853163416
1236,-4.353602008788823,22.14976691605754,68.25639769070926,35.25253689815469
1237,-3.98077056203106,15.357386395888152,71.83121857146185,65.3999827553806
1238,-3.853410428530527,8.567428418801933,65.90681914053128,79.29996066040201
1239,-3.0213627941409165,2.707010620688777,49.81572547092124,91.4659293472762
1240,-2.193004474174973,-2.992547833574676,36.76723116842521,92.0437656133515
1241,-1.4709448766836477,-5.060126077712607,19.42196471537928,80.52101757213899
1242,-0.5090649954302684,-8.621934200073834,2.7944709523375515,53.51055618899136
1243,0.6477032335750952,-5.615296678397986,-4.462163131478555,26.246057139098028
1244,1.8654889728700008,-6.152536528003662,-6.182895609998219,-3.5541600929684165
1245,3.263427573365969,-3.429151178146274,-17.60296715298393,-15.27153942261304
1246,4.77889991889967,0.0030332843686231,-5.997418219724167,-22.622416816850503
1247,6.623213412559757,6.715737195837255,2.369456954611124,0.3585728355235247
1248,8.266077698442782,14.53201806844389,17.622159389868273,23.83131749581646
1249,10.000000000001954,21.413320183132384,33.74538530733929,47.5832045132526
1250,11.794763201819851,28.5110309130549,50.15203187145129,80.45021659678548
1251,13.574404895704832,33.74501694023309,61.33325965960189,94.29831143414494
1252,15.07442344308548,42.03478815523063,70.00215414066807,87.08173385622125
1253,17.123679700333742,42.69933669205666,66.09975353958757,86.4029888674674
1254,18.025539014096104,47.14793387809755,73.62830917419038,61.04320144437772
1255,19.497410552308665,48.355476834109865,55.60023398739604,38.81476730622919
1256,21.20569227766884,47.89122545492389,44.37228295027028,6.855138451403761
1257,21.406965557688977,46.66623433565509,31.130734458460932,-16.772868336020416
1258,22.818324963714844,41.93800358468869,17.20086181940994,-19.882284530027317
1259,23.78667893593917,34.63831350190753,0.8115370799693622,-1.2314949754983149
1260,24.289163847876218,28.38129508537828,-3.109298777258772,11.505240553880643
1261,23.521199873204424,22.296525684666125,-7.912111194927483,35.20878677724376
1262,24.07432290297556,14.621166236332904,-4.849803851177441,64.51228968836666
1263,23.57536726238412,8.238307783577245,-3.0884222765192817,91.16905816028384
1264,23.422499039367505,3.660187233652529,9.584055919099397,103.20576719143725
1265,22.477218967908406,-0.691712870828578,23.104108455448007,90.94271629712053
1266,21.582028101111877,-8.19898674885923,40.80318210881895,78.6067533798916
1267,20.650034824759068,-10.03107359732807,53.9844239041373,53.388045807888425
1268,19.961567724682013,-9.424554877806376,60.72987283574015,22.45866240260173
1269,17.988840847033913,-6.280485827060605,65.7303514961338,-6.861139836050953
1270,16.597075883231337,-1.7156184515624986,66.78133884918344,-19.558014648038544
1271,15.461105481941017,2.759128589523957,62.85704951989483,-10.311307510882976
1272,13.684598501892191,7.4001663261477155,55.2326065237681,-3.18070033743404
1273,11.707400964216564,14.584300609945146,42.9975470711486,18.57563245333068
1274,9.999999999998192,21.366962633349274,25.843348491721887,49.41871277564828
1275,8.31409942500678,28.264515028247317,10.5848307124494,79.87085600431695
1276,6.396376711648901,35.12895727016436,1.5777434303681304,99.06059172236718
1277,4.571837911772835,39.8374021421844,-10.588279430659256,90.32171639907524
1278,3.349526170584592,44.193797727528334,-12.231682579656535,84.6723482786222
1279,1.6324457977221591,45.91692559618859,-5.40608537779876,62.441258786420406
1280,-0.0672465780633118,49.20165912152413,-0.4922757496743095,38.41110748527317
1281,-0.3656396280853293,47.4530830618783,14.95973755764762,9.187953763553246
1282,-1.8521468600325195,44.634481050277344,28.936107425692985,-3.1369076099236253
1283,-2.415651044674716,40.39723202859446,45.751281688216274,-14.27730070323092
1284,-2.7879266334824724,34.24774207647191,56.59886624114004,-18.53835243364148
1285,-3.9725810466293794,29.244602386698453,63.62313989671174,10.320627542854268
1286,-3.673859910976205,22.001261069874865,66.4528041186679,34.508088569130734
1287,-3.477814451606168,15.048640425738704,73.39916758735001,66.13449304019898
1288,-3.467151615855858,9.337240551486186,63.10392085477541,88.58073550842431
1289,-4.09764936001268,1.2159864140783905,54.583888489277214,96.41466482312742
1290,-2.6169149957232847,-1.127328974223886,36.36827771425072,87.81222637008048
1291,-2.348444010509981,-3.930623147319494,20.421780401400248,76.89519822942727
1292,-1.0312311823916804,-9.129306154292347,7.38127309467027,51.21907102111038
1293,0.3530314345018635,-8.418992220960828,-7.594444518262037,26.899253006012916
1294,1.546439485513737,-6.701755847829645,-17.172079248568863,-3.0698496880697235
1295,3.1959374395323312,-4.927781818060659,-16.122481893094466,-17.006768030192745
1296,4.79330437985686,1.6303048084646647,-2.323332683505022,-19.142408977433465
1297,6.553440639711136,8.71751628369553,3.187970388186727,0.316174226432885
1298,8.279400042624555,14.068130619007654,18.68366112137293,17.43371875538685
1299,10.000000000001965,21.53258957901536,34.53115283693477,46.98925059158625
1300,11.733756599902916,27.632690942301025,51.6328974611219,78.82821867116229
1301,13.576767875883707,33.62366431373124,62.21024047389502,91.94729158151418
1302,15.356260681050031,42.294482130506125,66.56078636991714,87.4265179856342
1303,16.706167029973237,45.47543794939958,70.51749828376701,79.06953833477309
1304,18.018306019536247,46.7892593182346,70.01064543146703,71.16391160299166
1305,19.298653806252474,47.821134666298846,60.34442450430959,38.66681338184255
1306,21.298035980665656,48.58672609449373,44.36595177945329,17.145715636927086
1307,21.43219339651221,46.1141371771041,31.206265090180924,-9.757849924615876
1308,23.158977531238293,42.44328097843015,13.77894956893411,-18.64781750549669
1309,23.656771272264063,36.59958325273118,-1.1482406003056551,-11.07098980877916
1310,23.664031063852683,29.88717835529477,-10.078291815061704,7.046983162703917
1311,23.71972862853187,21.95182530608588,-15.106379712705866,33.218712938491365
1312,24.5643011955308,15.26402352664995,-7.279271309659848,57.68964806313726
1313,24.20301429299106,7.842269308256911,-7.7260218133034115,77.55305332710665
1314,23.09120430325153,3.50953460085341,6.623133476155214,97.0314799172653
1315,22.432520423709818,-3.9488226857855535,23.467209105753764,86.05736207534375
1316,22.374400053335364,-7.636989948157268,40.27146563468911,80.18939690709209
1317,20.524001211872303,-10.382601487333805,55.23465263885534,52.40855459195772
1318,19.228692681803807,-9.300940020378444,68.618441233087,24.2959386883121
1319,18.266554191920548,-7.3001055956857535,74.15204992315115,-4.396574823067255
1320,17.083389865423406,-4.274397593474909,67.9410289139613,-7.672337641624345
1321,14.98147111284365,0.1255657050935958,64.54061080819562,-23.18993228418082
1322,13.51563270528038,6.413913049305986,54.61149384695067,3.840370719740001
1323,11.826750054294294,14.000954396660866,40.02322507187789,16.655256433912566
1324,9.999999999998051,21.526580175825096,25.54537422807161,46.85409268822022
1325,8.266619994548282,28.607254896328005,8.438315633235689,74.0795043437369
1326,6.470655444507816,34.96846246992122,-0.8615106132016308,91.04665725955772
1327,4.692588136513574,39.01413732533095,-5.065283451750737,94.36219408942564
1328,3.251531248614799,43.66209746609579,-9.783439092909596,82.5783805042474
1329,1.5950807520198964,46.83725482572364,-8.83830772884923,67.59697011328872
1330,0.3938835630663249,46.58520384622464,1.270781406396484,38.72084883805345
1331,-1.4384427842115937,46.780280530251375,11.98075360697731,13.173800709165588
1332,-1.60267287890896,42.96904254683172,29.009570145527547,-12.030172318002322
1333,-2.937854034353732,41.92886359872843,43.83865333788861,-19.23552907038277
1334,-3.467650098071269,35.439615804631224,62.37249084784973,-15.199215644247111
1335,-3.346530515723609,28.77021676932529,66.09742237202457,5.492823994279831
1336,-4.186336403758897,22.28522636034949,76.07123699410982,34.124595172676024
1337,-3.939471664022541,14.893881897572845,66.0067365255249,58.68589271981513
1338,-4.206675750971806,9.282251467431069,63.1295770818349,90.77728851815388
1339,-3.245844182757306,1.646874074644245,51.539537162214174,95.37105822219712
1340,-3.0465467614522144,-3.6855916588161257,36.81861319617353,89.8556328199634
1341,-1.664540980166045,-7.599520522793625,20.095261800884597,82.9373963595485
1342,-1.3815343277878327,-9.95318783125188,6.888931052309079,51.22687273870564
1343,0.3184572422881953,-6.293984313565218,-1.5772208470814064,25.750424050848444
1344,1.296657147488574,-6.765953031578302,-9.362275538555444,3.274727490061913
1345,3.096680209595891,-5.226858152705841,-8.288146062423891,-10.271257806182255
1346,4.635651552343679,1.2144649983716356,-9.371418118951034,-9.976893378080028
1347,6.480995782026079,6.83238977576023,3.797638779988226,-3.5665633683741333
1348,8.258045003116969,14.49702427090808,18.55290565885027,19.55502396433852
1349,10.000000000001974,21.44281006417663,33.811996801534974,49.113552812835785
1350,11.717838578992628,27.8495297266816,47.93581863299244,73.65952080458598
1351,13.63552849623661,34.83832546956685,61.6543767219914,83.7051234521343
1352,15.058775380934758,39.96275303097658,71.55737409413388,92.59370957307767
1353,16.821242230775926,43.979894950399135,74.8451758161089,82.6099298576982
1354,18.42695493982949,48.29312768529759,74.54758495003588,65.72973275806265
1355,19.455759781581413,47.504349031810165,60.84125923713603,38.63346828567525
1356,20.75397198411272,49.011932112891,47.21898201321408,16.579986842507687
1357,21.9442207480588,46.53845921546871,31.16878917962556,-3.692940511874774
1358,22.522219108119693,41.88197989539594,14.1909730060234,-18.790895987759733
1359,22.998335872573804,36.55237904213111,-2.337672042319916,-12.208723107687462
1360,23.72546100323448,29.93333339062257,-12.355781937975692,13.285223271599566
1361,24.660869718829368,22.07624263299172,-9.835899084132109,33.32259332708782
1362,23.85959854302908,15.327407415585576,-6.680211368739386,57.799977859720286
1363,23.665534279795647,8.63136090663396,-2.540545441918717,83.53942151843663
1364,22.91341115133169,2.322773772072868,6.076842374842087,106.94245873335694
1365,23.05807977575339,-2.5040701168036605,24.05910816471071,101.4034436653146
1366,21.68033191247799,-4.60652681419004,40.88553216664993,72.01741030112296
1367,20.48477767642912,-9.296149395345331,52.9912565730398,53.97805072910512
1368,20.07967225557985,-7.714601573852438,64.85665588122751,25.961790448008035
1369,17.978810169679647,-6.422007853476305,75.69692094100347,-4.155712008756673
1370,16.752250620496937,-3.935535179025571,67.93049672274336,-19.436218371341965
1371,14.960795497029752,1.5473458935486484,69.12349455261844,-13.77098989737761
1372,13.455728008826538,7.52109684390078,58.45677269070252,-4.599276344874184
1373,11.76164399006842,14.023150985263667,42.22059775297316,18.82062674337553
1374,9.99999999999796,21.39605602047339,25.572244339301623,47.52583076237055
1375,8.199166982667064,29.0936410960968,11.911696819951036,73.87948524742424
1376,6.465548365187567,33.73935769499798,1.1156426186350608,91.48018990003672
1377,4.938122346219527,41.34521223809746,-4.609177528619682,101.89708632738456
1378,3.0324628367820106,46.11187801362674,-10.62289573229809,86.10038251746437
1379,1.931685727468361,44.58867663260431,-3.95299173087448,64.45998063147053
1380,0.258817810745537,51.07695642506332,-0.3100952731802024,38.85631769256099
1381,-0.7397442428138401,45.40476878507266,14.818746834535272,7.063713762687257
1382,-1.7287064727505523,44.90097109524393,28.81735084893768,-7.95093829421387
1383,-3.014637364956545,39.66696827434826,45.88400115660158,-13.059195469625353
1384,-3.5619576097015457,35.505577097210704,60.787007460717305,-15.469270958468949
1385,-4.206531835474289,29.86374445289927,72.04340185023841,6.316015715204266
1386,-3.697298049173094,22.14938729227331,75.33643468462255,33.57964162640819
1387,-3.538088382674552,14.961999608766329,75.54420918075442,59.80863111350524
1388,-3.713025229268771,8.187329991777592,65.96311618331075,78.04057063377903
1389,-3.1070445981823287,2.509459213876536,49.462565837379614,98.426987197579
1390,-3.146674459262892,-4.10470055791933,36.57568779131813,101.52010548781416
1391,-1.7076319176050312,-7.577115922919038,21.10214354870544,70.35736841158325
1392,-0.6649036409079727,-6.844747877545977,9.16574020304759,53.44024496582694
1393,-0.073478767315386,-9.847565773411954,-9.329498160565258,26.62285524818733
1394,1.4041247040854028,-8.299225703065385,-10.899208127334234,-1.7142926459338526
1395,3.457347195683025,-1.8500647808869,-15.217841151616469,-8.674458554591084
1396,4.874012548569055,2.784861144416297,-1.797293908784674,-7.837909915841671
1397,6.339962677143658,7.461534483083119,2.6304771444283546,4.915256313792419
1398,8.307646546448606,14.83559124325892,18.7963545617133,18.70555287720688
1399,10.00000000000209,21.37546850777666,33.956077636768576,49.06411411036551
1400,11.84249417094832,28.48537563736619,51.4376603803016,73.0122457735651
1401,13.419468967182906,34.44690390761439,63.81319416990571,84.72931709420514
1402,15.141779179278132,38.43282321373325,66.06985673294622,94.78425608167316
1403,16.569980916539663,43.03222750416696,78.35364510615389,90.98688402378528
1404,18.711095590337877,47.50001730023176,64.94501310766422,68.32353010615417
1405,20.06816255898513,50.82814578084236,57.07371886712821,38.7824470696652
1406,20.816523242329215,47.74590890037472,48.31594696083397,13.243120653221354
1407,21.36591512009317,45.52283675935796,31.189982901042995,-9.532234769239274
1408,23.247940774495788,42.48703784641859,16.6597094519205,-24.34811421424449
1409,23.30364228280132,36.44066459509982,2.3579416336503947,-9.29015197942357
1410,24.33149056063812,29.62748382043238,-3.961562247467669,9.37128313787018
1411,23.783834000924013,22.02730717417612,-16.40642304820316,33.935924608105815
1412,23.82386556649999,15.333868734966009,-7.262242370214103,60.7448474333476
1413,23.64229219407097,8.423562832755277,-2.062417871838022,88.90055212055367
1414,23.30187069304583,0.7408234783584078,10.69709231857205,106.4499383702426
1415,22.53776760712777,-4.909890731472672,23.032746419285523,86.6897012373694
1416,21.74912904635548,-5.514791363755364,39.16851057463138,81.13286804822016
1417,21.217997499415624,-10.244653920796338,54.58098010196488,53.59339115816863
1418,19.232371148021908,-8.119203949442102,67.02894015108316,26.325492596847305
1419,18.58710222576169,-4.852643841301301,67.60812453836061,5.388401418846179
1420,17.12113004467144,-5.049864705033816,67.38798386503736,-21.05995704322841
1421,15.38720437601078,0.936283285600215,71.46417906730332,-5.966168799170852
1422,13.680056754010192,6.720647702333338,56.66939374956925,-8.332326807254418
1423,11.787116392779446,13.871359360036587,40.51138709374983,23.70221589925333
1424,9.999999999997796,21.544873865276557,25.43783510729453,49.10986170638312
1425,8.210344435646753,28.958661760721057,11.443246825373125,73.4069803256561
1426,6.4342193200954245,35.27442381901617,-6.665574952353296,95.42274688700724
1427,4.765968883779392,41.04738542211591,-8.323612476195954,96.5111903769606
1428,3.381165968045184,43.894114438929215,-15.143484659098393,89.38578062252915
1429,1.5178755293935282,46.5460983454888,-13.217332320721347,65.02330162684495
1430,0.2226428538581881,47.80223522089514,-2.0394626784579657,38.7238846696104
1431,-0.989773171408526,46.42525776109163,12.615904262017398,15.542520922846656
1432,-1.6081917321928412,42.70804706633474,28.82365015070862,-6.540732212956286
1433,-2.1581340742745017,41.24037249925472,46.30228632418365,-6.740243594236524
1434,-3.0302731567088887,34.216797165354265,57.25707880913679,-1.2304328945545393
1435,-4.174026121484543,28.35125143290402,64.65106294776089,9.389517314342658
1436,-4.47757553314338,22.02312332989744,78.37541404918949,33.840506615816786
1437,-4.018564328503608,14.80095985064506,76.51050534047175,64.45128367744594
1438,-4.00894971010112,8.910100962501241,58.3994166004001,79.31304849918376
1439,-3.3035357769199987,1.2373116888491786,50.56719536163486,87.61174472882439
1440,-3.0336661813511334,-4.371344147735044,35.830432384391635,101.35406346796356
1441,-2.3308581825513084,-6.341139210925231,19.57684812055692,77.83114834555168
1442,-0.9581707482333908,-10.728982545046929,5.978058096494657,50.86092444430538
1443,0.1411215513105475,-9.670689634427095,-2.336820848594243,26.51106087325901
1444,1.3083328387776323,-4.209745767725856,-11.046047535109778,-3.428055133563298
1445,3.415124845881775,-1.1587104620389574,-8.345583732849462,-5.320223274615053
1446,4.592441522129178,1.2288581394209075,-0.9364153206904896,-10.640722596785253
1447,6.551623345996465,6.843045274647354,0.6569718497528463,-0.4566803291765353
1448,8.23948981215289,13.859903659775204,19.94719447346081,22.391949690646147
1449,10.000000000002082,21.31543857603293,33.93596321510671,49.78316813694089
1450,11.79857410125038,28.214639048771254,46.580906673221946,77.12016129315697
1451,13.36360795157421,33.77861006622326,66.09576736510108,91.52457487182986
1452,15.422469152174656,42.12098957298243,67.88739630076276,86.8102458608072
1453,16.509011617373798,43.19292476905717,73.79031565102144,78.9354229964779
1454,18.02836539223608,46.59025549736454,66.71733248269966,69.05863309594085
1455,20.018808511063437,47.08518251807296,62.03334023774388,38.51891436920339
1456,20.728699548370024,48.05129165733101,48.229166711848094,8.433560361123341
1457,21.627858940781707,44.19591936093383,30.95806024866311,-6.437804216010591
1458,23.06700823391563,40.197434962698935,15.44008268312614,-22.219214591949083
1459,23.82586116954436,34.524286885224534,5.430901302570423,-16.005482551421075
1460,24.090258573797684,28.981007700375688,-13.461886828172773,3.791481727585847
1461,24.335258671410276,22.26958680996577,-10.57235998928013,33.7177701728283
1462,23.58087439232238,14.662327882533932,-8.697876744382654,57.787791521159065
1463,23.30295826377382,8.883097506210573,1.309206468576292,84.19692894744733
1464,23.65719469698473,3.3822470608843105,7.995289455345048,90.10479918606956
1465,22.17442256166631,-2.951388839037431,24.473164284427007,103.89580734639313
1466,22.13271485989837,-6.579549049298628,38.14368177268037,83.69467553361821
1467,20.650771434200912,-7.576933846100175,50.67211454844913,51.816362290051856
1468,19.34249057770796,-6.055988075605043,66.5828895107842,25.23976583102841
1469,18.221356239667728,-5.859471654358696,76.53281564902125,4.904262525924729
1470,16.596767773257337,-3.876938500076246,73.83780879060635,-18.44142481607648
1471,15.166546488625515,1.83416883449123,71.15956147204804,-14.443945279986302
1472,13.594069820292988,8.71665389348754,56.35135294361056,1.790089038526574
1473,11.708229051111662,14.386685644360458,41.16582296042202,18.005516351477965
1474,9.999999999997906,21.489240348058576,25.514912169727804,47.957205144148574
1475,8.200311823895907,28.454961169639898,11.422996534247652,79.23273628627229
1476,6.496329963259194,34.594205042452245,2.791189246143727,87.70073363299801
1477,4.785250866846008,40.317911353670254,-12.997307982773542,95.33209057468912
1478,2.9453823417923,45.15058244647296,-14.923732676467814,89.4559146642418
1479,1.6863174569691337,45.507708745794574,-8.516731437327763,60.89717282391334
1480,0.5063437172838494,46.685893024844646,-0.8920972797645277,38.60805272235646
1481,-1.3849839693643275,49.99319341087036,12.067138371039396,13.48904848161926
1482,-1.411072638335849,46.69349372699209,28.958316739873297,-1.121449262634286
1483,-3.163078663774513,41.3811961731476,44.17105147873048,-15.08962876543164
1484,-3.0251422864677444,35.80130811318965,59.97728978024743,-4.375128109781564
1485,-3.897279601742307,28.65060413339086,67.3719667091256,8.261266185160277
1486,-4.579996082367035,21.948619503754504,67.55141138037868,35.19607262672244
1487,-4.561453445120014,15.1177070708368,74.40795660226351,60.89673292425808
1488,-3.456761856983272,8.454384776938072,61.47946890366456,83.50154041555541
1489,-3.3363632366262728,3.593703825587209,53.3184793570606,93.16819786858882
1490,-2.2025051377975835,-1.7183362103775617,36.60995778382562,94.41440191313704
1491,-1.47870417600196,-6.286390534247605,20.343767299833708,79.38666408597877
1492,-0.617143290261625,-10.322995383749664,4.052903395928585,54.851779092119486
1493,0.736694094463056,-6.381063171123333,-4.044910394828079,24.762446042952728
1494,1.389265257479508,-7.330882417167626,-10.025288936666804,-0.5590220165778561
1495,3.50903443334302,-5.0719238585731325,-17.742133239941317,-7.870543656317309
1496,4.971997095636829,2.638375229609462,-1.3903041755162242,-9.202946335107626
1497,6.500461726271263,8.79701330339665,1.6127870922440373,1.3884675962660469
1498,8.198720651409799,14.643632403188814,16.680917925819905,18.078396187263504
1499,10.00000000000236,21.51789466372595,33.76156370857033,49.546825402694
1500,11.782238564362624,28.767515356471883,49.74923791581737,73.75162123056323
1501,13.67029538320954,35.69580761188165,59.44694173902291,98.06108251177422
1502,15.260131801398265,39.23312538296975,74.2978548902177,86.43771622016108
1503,16.79677602826057,43.26135984995727,74.8408455948755,90.21906973075376
1504,18.68682116436453,44.76587992763216,68.66688821401284,70.89109348499409
1505,19.644537540844706,49.338652790181214,62.63622982534625,38.82845612201635
1506,20.846321872710085,45.12352892180823,46.101708744585295,16.803213271781683
1507,22.182445553324605,43.28052460942023,30.992207640457988,-7.3383072639636495
1508,22.415212694319287,39.59045518452946,13.900425845950238,-23.444959289897355
1509,23.68906634905589,36.18211882772725,-1.1764719102317365,-17.342175168373366
1510,23.28778094282726,28.73662683324817,-7.368997024616,12.02697486018716
1511,24.598342027089547,22.122921976947797,-14.027005296299848,33.976101993025345
1512,23.83640230101839,15.277943487632935,-15.171081318354837,59.37619302731619
1513,24.076713366186283,9.180978950130848,-3.8840175523452913,91.87001793650948
1514,22.9896256075428,0.6644941965899598,6.448858209360761,87.03027235574336
1515,22.99341723842337,-2.4348876436556246,23.72298871856612,83.3458372157553
1516,22.33842622955618,-4.945430055710695,38.75015161798485,84.77598655507828
1517,21.109778786238067,-5.81848398975951,56.51639775770638,54.81894899390456
1518,19.370899740571254,-9.660946553549673,67.85569956104982,24.686061550646716
1519,18.528651578004972,-7.398876962604206,70.67024716627748,-5.345771886515834
1520,16.737741501299897,-3.006574358733221,75.50572662170302,-21.03268182348775
1521,15.432967614901996,2.9425308775217047,64.59640982947228,-13.015135719335802
1522,13.616619267952078,8.437537671350892,54.971549323605615,-7.929013916700761
1523,11.802398045181464,14.288714868743844,40.74813330580521,23.67016290679627
1524,9.999999999997655,21.40366672786418,25.568112194274462,47.8870106146655
1525,8.283545298082608,28.803694486134624,9.16931961936864,77.71992331886125
1526,6.542588411666577,35.42706508311806,-0.7171892326788019,86.811568539719
1527,4.889166014217752,41.83388379958876,-6.317754036554419,86.8660179317914
1528,2.987254993924152,42.17342917115565,-7.691697694078449,91.65672221652974
1529,1.7671060599439787,45.77915991106968,-10.057499570540417,67.20938849958429
1530,0.6841331719006529,50.45600770242629,3.0587724727801344,38.767049275295385
1531,-0.8864704693893746,45.41652943489163,13.918069063028897,9.958941136703393
1532,-1.369496595622648,43.458190156005706,28.837268438928557,-10.187467759545
1533,-2.778352406734802,41.1303670627356,44.82958233233265,-14.339185536163718
