,TP9,AF7,AF8,TP10,board_ts,unix_ts
0,-6.7531394127113895,-58.87833493313194,-208.1011161832386,-2.5730763012526268,1758423567.5853834,1758423567.6561852
1,-21.78842685440186,-144.8736604661731,-544.7046702258792,-7.577523362182678,1758423567.5891633,1758423567.6600914
2,-27.539257144042978,-117.14006159045418,-483.39430108709905,-9.107873036794047,1758423567.5929432,1758423567.6639977
3,-25.835686202092013,-113.88662990122168,-405.1083908318983,-11.364910518323153,1758423567.596723,1758423567.667904
4,-29.58687487112438,-180.81541412093065,-560.3188549256674,-17.820989347532695,1758423567.600503,1758423567.6718102
5,-28.965307504007257,-148.26944822724613,-461.9227910675186,-20.66148029215058,1758423567.6042829,1758423567.6757164
6,-27.16204169334185,-110.16862857827891,-394.89699303146244,-19.612019686509512,1758423567.6080625,1758423567.6796227
7,-30.69526525710512,-137.97704408038135,-447.53366999106584,-16.888216058264362,1758423567.6118424,1758423567.683529
8,-30.827602436181223,-188.97640192678045,-470.7554553270347,-13.875794438621142,1758423567.6156223,1758423567.6874352
9,-28.344390943190433,-108.60445165126748,-410.4577201909415,-13.124762675266766,1758423567.6194022,1758423567.6913414
10,-21.618863622321783,1.7720471907423416,-194.86168899096447,-18.891073898318496,1758423567.623182,1758423567.6952477
11,-13.673914993871222,-129.29237137190376,-295.8881687266403,-27.550840087821143,1758423567.626962,1758423567.699154
12,-19.876310588926117,-142.55036729150743,-417.355414748341,-22.004730509958335,1758423567.630695,1758423567.7030602
13,-23.669202318362068,-27.506516885701785,-233.58544475584495,-12.731951395155647,1758423567.6344283,1758423567.7069664
14,-11.003364204020272,-100.27189521824039,-264.72156546830956,-14.120609443562444,1758423567.6381614,1758423567.7108727
15,-7.903051220567704,-106.61584472681352,-344.63167161545425,-13.508651219120338,1758423567.6418946,1758423567.714779
16,-8.470743100337586,-45.431691484085604,-261.2650595833402,-12.710387816300681,1758423567.6456277,1758423567.7186852
17,4.94173435217499,-74.5712849346728,-254.1459615514541,-14.177140753298772,1758423567.6493607,1758423567.7225914
18,9.843153631005407,-96.50965961981274,-277.39566331898095,-13.757508282787967,1758423567.6530938,1758423567.7264977
19,1.5942753857270873,-90.35919408333575,-285.01218158639676,-9.121380769789539,1758423567.656827,1758423567.730404
20,-0.42158187964560057,-54.81536313372635,-287.36814579459315,-0.18360585124537465,1758423567.6605601,1758423567.7343102
21,-0.838758255281391,-7.35324436864903,-183.8100212791178,-3.8133819393710837,1758423567.6642933,1758423567.7382164
22,-6.63452575658539,-53.77415327688868,-156.73411480495997,-12.004558556204756,1758423567.6680264,1758423567.7421227
23,-7.037466716144081,-98.31826829529018,-269.220038420739,-13.104744093839145,1758423567.6717596,1758423567.746029
24,-6.769487509562168,-3.61670564299493,-173.42504357066355,-18.9835798297363,1758423567.676765,1758423567.7499352
25,-0.14519739189654501,7.534820384862542,-80.02203385379107,-18.97282156512847,1758423567.6817706,1758423567.7538414
26,12.016313794753842,-85.18584894590458,-213.70634137632442,-15.07859811835533,1758423567.686776,1758423567.7577477
27,-5.6893803723205565,-86.29634335906303,-253.4058202261367,-21.596893232430375,1758423567.6917815,1758423567.761654
28,-21.481188983800166,-56.10140860196407,-195.89071271871217,-24.42903129447768,1758423567.6967869,1758423567.7655602
29,-12.334974094104837,-49.363040029587864,-174.3205098718754,-23.19522886582763,1758423567.7017922,1758423567.7694664
30,-19.089936273037893,-86.12263408458239,-216.015519949171,-23.695853658764463,1758423567.7067978,1758423567.7733727
31,-15.575473783246707,-109.46012971893651,-253.86374285604688,-14.600333559982573,1758423567.7118032,1758423567.777279
32,-0.9988061246513098,-12.741347582377784,-114.3574985426967,-8.755368296006964,1758423567.7168088,1758423567.7811852
33,-6.040989540006194,38.80463433544355,20.13654921972193,-15.844166955181208,1758423567.7218142,1758423567.7850914
34,-3.848929416099054,-59.645558216150675,-83.15394769315026,-14.835128040487689,1758423567.7268198,1758423567.7889977
35,-3.394519277870131,-71.33532551660755,-150.96312813891564,-6.3930107561609475,1758423567.731825,1758423567.792904
36,-7.33894757447888,-14.110162351971667,-62.18368225404993,-5.4446908069330675,1758423567.7344613,1758423567.7968102
37,-0.41968523041032313,-53.90079978799622,-48.611832546128426,-10.083292501445612,1758423567.7370977,1758423567.8007164
38,-4.733658341738192,-68.64099887071643,-67.37460401267163,-12.061970257353096,1758423567.739734,1758423567.8046227
39,-8.507304812406801,-47.57818855358346,-44.530442032672,-5.882544529171355,1758423567.7423701,1758423567.808529
40,2.406526300157566,-41.48672970623011,6.74962856961065,-0.015234758444421459,1758423567.7450066,1758423567.8124352
41,5.160367928679989,-77.14552038793045,17.177061957132537,-1.3223550649836397,1758423567.7476428,1758423567.8163414
42,-2.1519024384924705,-112.83841059879342,-31.25935386616038,-3.9456461102035973,1758423567.750279,1758423567.8202477
43,0.1129984566650819,-42.56138504127739,54.19715611700667,-4.479131850703197,1758423567.7529154,1758423567.824154
44,11.612868865520795,-44.68176406236307,109.24398690834641,-0.3087405428632337,1758423567.7555516,1758423567.8280602
45,12.250173047104909,-128.07791077137517,19.107937271532137,2.034480062835428,1758423567.7581878,1758423567.8319664
46,5.913484753431476,-147.5651070829772,-30.43889264605241,4.553094782979315,1758423567.7608242,1758423567.8358727
47,5.117580985908717,-127.01941232444369,-19.16053795814514,13.13425185662345,1758423567.7634604,1758423567.839779
48,5.775021068731803,-65.33561504923273,109.92915927653667,6.492007188529897,1758423567.7682552,1758423567.8436852
49,12.939501021619435,-112.8413499249582,122.47442950087134,-1.6639050620960916,1758423567.77305,1758423567.8475914
50,17.67664670521117,-221.74840719191707,-64.97433083358919,6.9562517306585505,1758423567.777845,1758423567.8514977
51,10.32463158419705,-165.23163359791215,-14.187109492020682,6.593308389405138,1758423567.7826397,1758423567.855404
52,7.282605749409413,-97.67686563900497,131.20629958377685,5.679436313250335,1758423567.7874346,1758423567.8593102
53,8.539154247449915,-171.7303388286964,28.820596727600787,13.324889868137689,1758423567.7922294,1758423567.8632164
54,10.10894123619073,-254.395260510355,-124.57675948622636,14.713573888286192,1758423567.7970243,1758423567.8671227
55,8.442593963536638,-147.8528027721477,-33.32938961870968,6.909825452574296,1758423567.801819,1758423567.871029
56,2.5267860336571175,-33.69522754789796,173.76212750689592,-9.196901576597156,1758423567.806614,1758423567.8749352
57,9.597732804599218,-155.01677336610737,73.96984060743125,-15.826270122037386,1758423567.8114088,1758423567.8788414
58,13.129673830659158,-174.84440976462793,-67.98822721815668,-13.879064741620823,1758423567.8162036,1758423567.8827477
59,5.722830535800313,-77.73994695281726,47.83339352934854,-13.69501368451165,1758423567.8209984,1758423567.886654
60,15.124088384138304,-154.96769697140553,22.692669316078536,-4.017664744213107,1758423567.8260553,1758423567.8905602
61,23.974737528267724,-193.88353529706364,-92.91432220640127,4.340763154999877,1758423567.8311124,1758423567.8944664
62,17.237392928982445,-126.68867661288823,-42.748620761442,7.237238985428121,1758423567.8361692,1758423567.8983727
63,14.69854606143781,-106.29672664310783,20.833875044132583,17.813633850957558,1758423567.841226,1758423567.902279
64,12.970483614823024,-137.09446720272535,-11.315150627691764,24.13390225002877,1758423567.846283,1758423567.9061852
65,3.6786080810270505,-163.64523286744952,-92.33612082659965,22.681643902244105,1758423567.8513398,1758423567.9100914
66,-6.213743166561471,-116.08355284921709,-76.20002286479576,25.160499250872817,1758423567.856397,1758423567.9139977
67,0.9769173437234713,-57.86770292898291,22.00605439109495,30.12316153147185,1758423567.8614538,1758423567.917904
68,25.025907047976943,-55.08685808716109,55.85171687870752,31.379667344310292,1758423567.8665106,1758423567.9218102
69,29.713519963414,-105.01792159699835,-37.915293543599546,26.367704332333233,1758423567.8715677,1758423567.9257164
70,19.73491552724954,-99.36599502785248,-104.21872442855965,31.411135640992143,1758423567.8766246,1758423567.9296227
71,24.897839670229587,36.34058180483407,99.55513971415348,38.042241678344,1758423567.8816814,1758423567.933529
72,29.49420248506067,29.45509968235274,181.03592289891094,20.694040721133206,1758423567.8841975,1758423567.9374352
73,30.75722332116493,-86.38273876460153,-30.233320963336155,19.040544497758674,1758423567.8867135,1758423567.9413414
74,38.10624561239092,-14.015133390028495,12.253031746833585,35.52934382768581,1758423567.8892298,1758423567.9452477
75,37.72136600269732,50.60340468629147,140.02035684278235,30.750838346186356,1758423567.8917458,1758423567.949154
76,39.1144203594049,8.07095774190384,65.19306159787811,35.402523763004865,1758423567.8942618,1758423567.9530602
77,45.306824863437214,-3.020497061253991,15.333759750821628,50.353313580926624,1758423567.8967779,1758423567.9569664
78,42.6806560931509,31.845460497948807,42.28331209695898,44.93871059217781,1758423567.899294,1758423567.9608727
79,46.84756536181885,93.74113491730532,137.81820430862717,35.63820463634693,1758423567.90181,1758423567.964779
80,47.363239803537,56.97274116287008,114.27009816723876,36.804353416286176,1758423567.904326,1758423567.9686852
81,31.43376376026572,21.02864749589935,23.33193130150903,39.813319496090116,1758423567.9068422,1758423567.9725914
82,25.99012402856897,96.57861006358871,126.39540537702851,38.49338711130258,1758423567.9093583,1758423567.9764977
83,23.54896329356052,93.17381745047169,169.00717654125765,37.693607705896284,1758423567.9118743,1758423567.980404
84,24.412917718163953,30.310625768324826,54.718859496410005,36.2334822962257,1758423567.9156282,1758423567.9843102
85,36.57201861662179,27.819048474542797,-7.792399051133543,41.243355154208984,1758423567.9193823,1758423567.9882164
86,24.57426587900045,123.33112843957497,110.93695023632608,43.26105153901881,1758423567.9231362,1758423567.9921227
87,11.575598483370413,172.5334522361518,248.45216929132584,25.889918259545084,1758423567.9268904,1758423567.996029
88,26.049309543290292,57.52565291489009,113.91830788762309,22.580305648123613,1758423567.9306443,1758423567.9999352
89,26.853608854737104,63.71059030236211,44.6638759925263,28.261067768908106,1758423567.9343982,1758423568.0038414
90,20.287077009190398,142.3289657968562,156.5121272073593,20.81624033375192,1758423567.9381523,1758423568.0077477
91,23.323367849821807,102.95507068099687,143.49263483041432,19.58568512281272,1758423567.9419062,1758423568.011654
92,13.444330080976215,82.35268070478924,83.83489258249756,17.26447849419492,1758423567.9456604,1758423568.0155602
93,6.644464435292321,100.81307987263426,54.99710191076156,15.184355084755225,1758423567.9494143,1758423568.0194664
94,13.011987262674666,150.44898699445184,143.4021214894019,15.923481881342013,1758423567.9531684,1758423568.0233727
95,14.897618698381848,132.88772584975231,174.28796180256177,12.446699642339809,1758423567.9569223,1758423568.027279
96,13.473939172341488,85.20510744437343,49.19586615310982,20.61470131621536,1758423567.960679,1758423568.0311852
97,9.24956026817381,150.42458757507848,123.37092416081578,26.31533753794065,1758423567.964436,1758423568.0350914
98,11.84576606268638,169.71563593449537,210.81253435916733,18.617303718878247,1758423567.968193,1758423568.0389977
99,23.09753653282678,117.6321708317846,112.97506874916144,17.346931834050338,1758423567.9719498,1758423568.042904
100,22.908027321194822,100.99904840171803,61.92382287897635,25.27351128704686,1758423567.9757066,1758423568.0468102
101,11.93956800320666,113.56110780272866,81.74268093670253,27.80177425261354,1758423567.9794636,1758423568.0507164
102,2.2239266045671684,143.47903126041638,125.38151337322779,15.278071821230697,1758423567.9832206,1758423568.0546227
103,4.056250171670399,137.17741972225485,125.97449745156337,9.927911833434337,1758423567.9869773,1758423568.058529
104,10.519913983673177,102.11375710426364,85.94957004499156,20.2526123921416,1758423567.990734,1758423568.0624352
105,9.087772349050283,179.66062031610636,204.89569386816584,19.726086035461776,1758423567.994491,1758423568.0663414
106,12.576900347019546,248.99418682971736,324.02369675866794,17.620630826739216,1758423567.998248,1758423568.0702477
107,23.36802367670134,155.09217228280613,198.87311172753107,26.00341693444716,1758423568.0020049,1758423568.074154
108,29.690104072382383,155.89058576477692,155.43413956684526,24.915437957446557,1758423568.0058205,1758423568.0780602
109,31.163523533479747,234.39342921966454,261.5647090136772,23.807910394254577,1758423568.0096362,1758423568.0819664
110,34.51143863231482,202.539307862462,270.18368273286615,37.33718956870871,1758423568.0134518,1758423568.0858727
111,41.820768079582194,178.0352275792975,228.99809188814834,41.74850873285686,1758423568.0172675,1758423568.089779
112,44.59649552800147,201.23803069605492,205.34950864082202,36.89455995368189,1758423568.021083,1758423568.0936852
113,43.69490501235032,225.01963466993766,266.99533281242475,45.41997148293194,1758423568.024899,1758423568.0975914
114,50.09817219311299,195.07465692452388,286.96799658227246,51.597607237736156,1758423568.0287147,1758423568.1014977
115,49.68029877977688,176.18874396639876,214.9568389718188,48.61812362596356,1758423568.0325303,1758423568.105404
116,31.801514305710498,234.28043188527226,271.7120837762486,49.774057139302386,1758423568.036346,1758423568.1093102
117,32.70584008696369,266.8314593156101,384.2181950157974,43.488113364022865,1758423568.0401616,1758423568.1132164
118,50.86228855658055,228.14842037693597,354.8509083552053,36.38719911790031,1758423568.0439773,1758423568.1171227
119,45.28890254161797,166.96780307515291,238.02520086732693,44.31483950184702,1758423568.047793,1758423568.121029
120,39.3007806836622,190.50386554183206,268.67859118175693,51.526961387733536,1758423568.0526898,1758423568.1249352
121,50.14568963706961,228.14377483958378,345.67443197791,51.27307040248161,1758423568.0575864,1758423568.1288414
122,52.51445343247815,166.96123281586915,249.6603146190755,48.01326586650248,1758423568.0624833,1758423568.1327477
123,52.11483741823304,127.41182697744807,177.56551554019097,41.91124820396362,1758423568.0673802,1758423568.136654
124,51.941386601255545,169.3673888706253,254.44973379629664,40.68572502705183,1758423568.0722768,1758423568.1405602
125,43.35458499046126,186.5366608100594,307.86308098759037,46.49771110257302,1758423568.0771737,1758423568.1444664
126,39.82191012056319,131.77936151542235,218.07559921615757,46.72615252729702,1758423568.0820706,1758423568.1483727
127,34.167575153824146,116.88056452566525,155.62538609316107,35.27024485859624,1758423568.0869672,1758423568.152279
128,20.497435670948107,208.6540957277175,280.306543961633,27.222717485150497,1758423568.091864,1758423568.1561852
129,25.535259110489278,255.4432805540855,386.06882878404576,27.679398514671448,1758423568.096761,1758423568.1600914
130,31.191044343935573,163.32472056674305,273.4198255480733,28.077086906028853,1758423568.1016576,1758423568.1639977
131,20.106552435849153,148.39892144908663,189.11063336383086,29.126060573838004,1758423568.1065545,1758423568.167904
132,22.126146269758465,212.32620676414808,274.14656410436146,33.028370143923894,1758423568.109088,1758423568.1718102
133,25.55184259606176,158.52398621873,253.1092957627261,35.29490520708714,1758423568.1116211,1758423568.1757164
134,18.013452114973916,128.59096907626372,167.5175782010192,26.88015035972967,1758423568.1141543,1758423568.1796227
135,16.09920957577924,170.0103895571665,192.89102542947512,19.26574260792586,1758423568.1166878,1758423568.183529
136,9.519220533780754,160.28174805099843,217.21132670284715,18.825414167185954,1758423568.1192212,1758423568.1874352
137,2.0671410995819315,107.81188925215974,153.7792422218481,10.502950559617602,1758423568.1217544,1758423568.1913414
138,5.514600105700083,94.31559539056616,86.6955773794325,4.121167651781434,1758423568.1242876,1758423568.1952477
139,5.243381592852529,157.44321013765875,134.61989882728085,0.3409649101595278,1758423568.126821,1758423568.199154
140,4.365864526524092,171.90379979932914,196.11021790839732,-8.55143751598007,1758423568.1293545,1758423568.2030602
141,4.13602367562271,114.59470764081925,138.5321823420236,-7.572153039498517,1758423568.1318877,1758423568.2069664
142,0.8608163321114262,63.711735151242465,3.0428310341667384,2.7811513301894593,1758423568.1344209,1758423568.2108727
143,3.7663371717499103,68.35491102538072,-35.15075125859585,10.244418599351775,1758423568.1369543,1758423568.214779
144,2.1280416441804846,157.13750554260332,141.20412745140493,5.906005556244054,1758423568.1418915,1758423568.2186852
145,3.695188756159041,138.22897125210147,177.62912301847246,-1.3131666543486062,1758423568.1468287,1758423568.2225914
146,7.995891199236212,32.713528248656075,-21.8429881723132,-2.66099676975864,1758423568.1517656,1758423568.2264977
147,-7.57949995076342,90.7749769318034,13.817382881068625,-11.414184177883726,1758423568.1567028,1758423568.230404
148,-15.427807040257903,133.55795333860442,112.8783686516108,-16.91805207552534,1758423568.16164,1758423568.2343102
149,-5.066495299826784,35.91847075376427,-33.86261152056977,-9.143310149753233,1758423568.1665769,1758423568.2382164
150,-5.9470724869315745,15.33438131143339,-107.38101354823448,-7.541610354513978,1758423568.171514,1758423568.2421227
151,-14.212531362216396,115.06668701651506,29.202986802556552,-15.436854889696406,1758423568.1764512,1758423568.246029
152,-13.294072875447455,157.7571269053151,137.61564866197295,-19.80442336131091,1758423568.1813884,1758423568.2499352
153,-13.690187539687031,73.36706144484924,33.76086006278638,-19.071242239275307,1758423568.1863256,1758423568.2538414
154,-20.48990957458591,43.694326930330135,-70.68421071174089,-18.059634847551933,1758423568.1912625,1758423568.2577477
155,-15.175898157140182,106.99200967414072,25.21025686606299,-13.651377792004496,1758423568.1961997,1758423568.261654
156,-7.745079275795433,117.90637763851555,90.90719544654712,-8.390046970591357,1758423568.2000115,1758423568.2655602
157,-13.1276172461221,84.95737525797449,11.554195653297938,-10.11735334097466,1758423568.2038236,1758423568.2694664
158,-12.499271791515639,103.66012033558218,-2.0481346455635503,-12.154158250508772,1758423568.2076354,1758423568.2733727
159,-9.294432565613533,133.59637120284606,79.08789653610438,-10.685788157548814,1758423568.2114472,1758423568.277279
160,-17.979655528397416,74.98780987557257,41.295496054692194,-14.513869083093596,1758423568.215259,1758423568.2811852
161,-24.443183604002115,34.60586527007399,-50.53587984421756,-21.701371578674298,1758423568.219071,1758423568.2850914
162,-23.08291273158102,82.0949721695506,-21.29140888445545,-21.454191444907337,1758423568.222883,1758423568.2889977
163,-22.697520349058323,120.64575058443006,77.50754069304094,-19.681942323950352,1758423568.2266948,1758423568.292904
164,-23.668750162323704,93.16183313727379,87.49824585323222,-21.804506128741195,1758423568.2305067,1758423568.2968102
165,-24.422215057027643,37.54645647050347,-32.36918971175328,-16.666456549195573,1758423568.2343187,1758423568.3007164
166,-26.975971686522826,74.19969512283569,-38.99861353659071,-10.240459948618081,1758423568.2381306,1758423568.3046227
167,-29.780068616659264,139.13934092741692,97.89336882799398,-16.27964468060236,1758423568.2419424,1758423568.308529
168,-28.71793509494455,82.29328006471042,94.34118653705809,-25.609032995984307,1758423568.2456877,1758423568.3124352
169,-28.549861897103256,6.181207514600828,-22.379537445376627,-30.915152969784685,1758423568.249433,1758423568.3163414
170,-30.9905473865947,43.429290905827656,-3.1377185526071116,-36.22650314864586,1758423568.2531784,1758423568.3202477
171,-35.19072338036494,99.48492516000988,91.83658803626895,-37.8474608950055,1758423568.2569237,1758423568.324154
172,-40.08499110907724,46.02936555980705,31.93128588667605,-35.73729431266838,1758423568.260669,1758423568.3280602
173,-37.30766780699196,-20.601404113403987,-88.98869371332694,-32.34523537836503,1758423568.2644143,1758423568.3319664
174,-33.39754202167387,13.675216602510773,-53.96058884705417,-29.136303670878988,1758423568.2681594,1758423568.3358727
175,-31.05518412082165,64.65612820617389,56.74186467786785,-36.63681855917093,1758423568.2719047,1758423568.339779
176,-24.45331233496836,17.802493449184112,10.119846500921994,-44.27525904723734,1758423568.27565,1758423568.3436852
177,-22.808713934660773,-61.33561242191354,-133.5575506357709,-37.852491843135795,1758423568.2793953,1758423568.3475914
178,-26.42433123306546,13.758733563183341,-35.746554296812974,-30.207674634526484,1758423568.2831407,1758423568.3514977
179,-31.22639144587447,78.9106066437671,106.83882516156882,-27.487147596490104,1758423568.286886,1758423568.355404
180,-35.35807536599168,-33.354856206977274,-53.68666693067644,-29.56069056520937,1758423568.290643,1758423568.3593102
181,-34.70995455983211,-23.183538069715723,-113.49021446343977,-32.04842317198927,1758423568.2944002,1758423568.3632164
182,-30.407953830086626,50.926972163957544,16.93779774813447,-27.970179064039257,1758423568.2981572,1758423568.3671227
183,-21.133205183723476,-25.629171353473794,-32.91565173480194,-26.69967086102406,1758423568.3019145,1758423568.371029
184,-20.04663999301556,-49.27885255648289,-109.50535585847683,-27.174043511098716,1758423568.3056715,1758423568.3749352
185,-28.570303123939084,-17.716464340046514,-88.03436614340171,-20.438043968068087,1758423568.3094287,1758423568.3788414
186,-23.357129236872424,-13.648096041870303,-62.24633417837322,-19.35394425728009,1758423568.3131857,1758423568.3827477
187,-17.80779891232669,-10.221161759458482,-26.16096027905587,-28.23666667814541,1758423568.3169427,1758423568.386654
188,-25.899117186490912,-65.16699058251106,-95.20251673518214,-30.43961547827348,1758423568.3207,1758423568.3905602
189,-27.119925932682236,-62.33189330674941,-158.4488509373041,-24.037889070634264,1758423568.324457,1758423568.3944664
190,-23.69317547220271,16.27313879795838,-16.890133382868953,-18.570947087500826,1758423568.3282142,1758423568.3983727
191,-23.855420888707158,-48.83753541321494,-11.506554662017152,-15.438873330655042,1758423568.3319712,1758423568.402279
192,-17.476866465585772,-125.7471971801715,-164.70409846492112,-14.299522609697306,1758423568.3368237,1758423568.4061852
193,-12.021849993092474,-58.212782290094765,-89.59207715990487,-15.298303405128536,1758423568.3416762,1758423568.4100914
194,-14.858598642385914,-53.651638013659976,-22.82890537090134,-12.699212337567587,1758423568.3465285,1758423568.4139977
195,-17.489528530990356,-129.34297747758683,-138.52264219650533,-9.188800216259551,1758423568.351381,1758423568.417904
196,-18.25064511630626,-149.11013390601147,-165.58516609179787,-8.708685681471252,1758423568.3562336,1758423568.4218102
197,-15.14533631458471,-111.26556660086499,-70.80456084629986,-2.2000895720120752,1758423568.3610861,1758423568.4257164
198,-14.390510979821556,-76.97511526665767,-2.3852567296708003,-0.9397389801742975,1758423568.3659387,1758423568.4296227
199,-19.481709649873665,-126.35624074281077,-48.975098904338665,-5.772641383242444,1758423568.3707912,1758423568.433529
200,-13.788443276949693,-186.96527324730414,-129.77606171311345,-0.18207311670994386,1758423568.3756437,1758423568.4374352
201,-5.888149767648429,-106.74707178078825,-28.958910107030533,-4.770149968666374,1758423568.380496,1758423568.4413414
202,-9.372557094349759,-47.97517879473162,114.45464548806194,-19.885297395972884,1758423568.3853486,1758423568.4452477
203,-11.515741688519483,-159.69089094296214,-5.146535575506277,-20.98885174350289,1758423568.390201,1758423568.449154
204,-13.695665438834112,-164.3770128643082,-75.79355059773661,-15.573855279566487,1758423568.3928485,1758423568.4530602
205,-19.655069260435994,-85.7505521911371,61.43462456623092,-12.822239103450556,1758423568.3954957,1758423568.4569664
206,-18.91138096555369,-147.26556102803443,60.16123693075497,-15.514619589506765,1758423568.398143,1758423568.4608727
207,-16.587280978666968,-180.68217618588824,0.5522670492064208,-18.844583182493807,1758423568.4007902,1758423568.464779
208,-19.587417117421865,-154.47456801321823,20.677514815237373,-10.918668815604178,1758423568.4034376,1758423568.4686852
209,-14.880103725954541,-172.6196615471854,28.55021548247896,-8.993298703746404,1758423568.406085,1758423568.4725914
210,-8.420509404080804,-197.27631638071034,25.856538014486432,-19.922820868319832,1758423568.4087322,1758423568.4764977
211,-8.938415920492844,-182.92338048529928,38.47439963568468,-16.475811314739985,1758423568.4113796,1758423568.480404
212,-3.810742043555365,-129.1112170717388,91.74545388517436,-7.118625252202037,1758423568.4140267,1758423568.4843102
213,-5.560914754663827,-124.25890831297147,144.07976758747827,-11.041346601909027,1758423568.4166741,1758423568.4882164
214,-12.453584931834484,-198.16718238953035,102.7424692614004,-12.280029175584787,1758423568.4193213,1758423568.4921227
215,-11.655718276277184,-247.3781379397551,-2.547611363348551,-9.795632330919034,1758423568.4219687,1758423568.496029
216,-16.86240735911997,-192.33992352875066,15.9115215864731,-9.701613820740022,1758423568.425702,1758423568.4999352
217,-14.703404488769593,-135.35630735053564,152.521686639986,-9.663833437443827,1758423568.4294355,1758423568.5038414
218,-9.642856428181403,-212.601464726642,110.34612729342189,-11.865080242787371,1758423568.433169,1758423568.5077477
219,-19.856555207632482,-267.9759755283594,-17.919095205958,-11.546687703579664,1758423568.4369023,1758423568.511654
220,-22.327085565586458,-210.7251832819893,55.47338183550164,-15.907276781159453,1758423568.4406357,1758423568.5155602
221,-17.88272333839268,-216.087730797939,84.37501994182821,-23.00752156386443,1758423568.4443688,1758423568.5194664
222,-17.055573121499037,-251.75412724603666,-19.322721572592854,-19.121316053933697,1758423568.4481022,1758423568.5233727
223,-12.777723340666853,-243.5861668229918,-17.876217952813022,-12.093111960348324,1758423568.4518356,1758423568.527279
224,-11.33740389844752,-191.93205963764922,82.08888848801143,-8.64226963899273,1758423568.455569,1758423568.5311852
225,-13.23420180354151,-115.80213654731051,191.3750657257624,-13.323251248453744,1758423568.4593024,1758423568.5350914
226,-17.63338609956554,-181.58260021425667,112.63721435400657,-16.787662812523195,1758423568.4630358,1758423568.5389977
227,-27.525170597655233,-243.32486604948645,-31.720950127812102,-11.879481868367293,1758423568.4667692,1758423568.542904
228,-28.634291082737036,-142.05589575422346,82.3248704035068,-17.904154867428588,1758423568.4705312,1758423568.5468102
229,-19.503026157733984,-132.30061643826775,155.11696396383923,-23.984687181349727,1758423568.474293,1758423568.5507164
230,-20.435828189656604,-185.28068381836056,49.43892915500328,-16.126362277253065,1758423568.478055,1758423568.5546227
231,-23.18562800233485,-123.45390908254194,66.06519287824631,-11.119411565407063,1758423568.4818168,1758423568.558529
232,-14.013770552192,-98.63696961430833,125.80787469900679,-9.7627982776321,1758423568.4855788,1758423568.5624352
233,-15.92186034694896,-162.5328518752067,74.89657079009339,-16.34834927729389,1758423568.4893408,1758423568.5663414
234,-29.605881090232288,-175.30961196869612,10.664410897297785,-28.825094402753166,1758423568.4931026,1758423568.5702477
235,-31.377246394753456,-108.11181440978544,42.51889429916628,-22.323108578973915,1758423568.4968646,1758423568.574154
236,-30.047328382148407,-38.80786437712959,188.02503246988636,-20.24921057264146,1758423568.5006263,1758423568.5780602
237,-28.627347854926484,-73.78927472609212,206.35201642022002,-35.391592016472714,1758423568.5043883,1758423568.5819664
238,-19.803886610636255,-140.8639958818094,52.42947744845878,-31.484550218388904,1758423568.50815,1758423568.5858727
239,-15.044033459795173,-82.41543011766043,88.56351184414234,-23.81745316555316,1758423568.511912,1758423568.589779
240,-15.214749688049778,-32.05238812393509,207.10626344324555,-25.576477115304442,1758423568.5168488,1758423568.5936852
241,-16.764605514967116,-88.1520618807699,127.6877040588297,-22.29440512713336,1758423568.5217857,1758423568.5975914
242,-22.426767352808383,-117.02076852327446,45.29212930961512,-27.279210794367827,1758423568.5267224,1758423568.6014977
243,-31.851960066400352,-60.132853979303036,121.5009518848965,-34.036456904999795,1758423568.5316591,1758423568.605404
244,-34.18387067284493,-12.66222617123276,204.8333219231572,-34.40906220996112,1758423568.536596,1758423568.6093102
245,-25.59103923206567,-92.97708050964866,82.39883990422823,-35.5214641779894,1758423568.5415328,1758423568.6132164
246,-26.84615539830702,-142.4557674106618,-31.18339021713473,-29.350368406885536,1758423568.5464694,1758423568.6171227
247,-28.750816647647298,-16.492278268327937,133.37186024000403,-25.11537306284299,1758423568.5514064,1758423568.621029
248,-20.6538547231321,29.215944878960727,246.31034022348467,-33.80302641526214,1758423568.556343,1758423568.6249352
249,-22.79107204922184,-79.60692914630636,94.69107901130337,-30.340770753726247,1758423568.5612798,1758423568.6288414
250,-18.402719773061108,-79.58378853293834,11.801275795907713,-14.553922542603686,1758423568.5662167,1758423568.6327477
251,-7.260331970785046,-2.7966590104042552,105.84163132263348,-19.072188078178442,1758423568.5711534,1758423568.636654
252,-15.402928747746046,-33.78688896331005,95.22198975319043,-28.85839914852113,1758423568.5748615,1758423568.6405602
253,-20.6281341813592,-77.44664511579322,-18.983039189479314,-24.080680209954153,1758423568.57857,1758423568.6444664
254,-18.872684547517565,-27.90664762747474,-1.7296720752492547,-25.9528172169521,1758423568.582278,1758423568.6483727
255,-26.2870743234962,31.351831936946837,116.02629246120341,-35.521884099100134,1758423568.5859861,1758423568.652279
256,-24.15410753703327,-7.7607674509927165,100.62734302307945,-35.89369072690897,1758423568.5896945,1758423568.6561852
257,-15.53682971400849,-54.43547226348892,-14.974251544335857,-30.016462382875034,1758423568.5934026,1758423568.6600914
258,-15.996782523958245,4.789154883939773,21.21243653050624,-28.68450425089395,1758423568.5971107,1758423568.6639977
259,-17.614100039048935,53.67721099901246,127.08205684251152,-32.530681701828144,1758423568.600819,1758423568.667904
260,-19.972007300239056,14.419198831164977,97.67996594402939,-32.05031969603442,1758423568.6045272,1758423568.6718102
261,-19.696131231146865,-28.747753096249653,8.921051532030106,-24.21620412610355,1758423568.6082354,1758423568.6757164
262,-19.034295732155442,23.38038836081978,41.542132499511354,-20.890796299208887,1758423568.6119437,1758423568.6796227
263,-21.171588308701757,76.47702358983224,163.88149860396516,-21.411647371161962,1758423568.6156518,1758423568.683529
264,-13.830604027345544,18.19144605245674,167.44348490296397,-17.251989530210267,1758423568.6194787,1758423568.6874352
265,-11.225673912485945,-3.4450613938388415,125.56929094612133,-18.446196475211764,1758423568.6233058,1758423568.6913414
266,-19.154847018624423,25.226801621436607,177.39458218647633,-28.53328581349342,1758423568.627133,1758423568.6952477
267,-18.324492380721495,14.596019759279443,199.07814282004256,-28.714950836394564,1758423568.6309597,1758423568.699154
268,-14.134359072719235,3.7042455341434106,170.68495643918868,-15.990816308723879,1758423568.6347866,1758423568.7030602
269,-15.029207362385932,-18.202899389783852,156.3560603496153,-15.899752056691796,1758423568.6386137,1758423568.7069664
270,-14.202751737713697,27.572185369033832,218.21661439002492,-21.625879408748006,1758423568.6424408,1758423568.7108727
271,-15.883782583274296,112.86102095802198,351.277704876964,-17.502341250466998,1758423568.6462677,1758423568.714779
272,-27.099860720627476,32.56151916619274,285.4418500664178,-24.111725508788368,1758423568.6500945,1758423568.7186852
273,-30.780920821081963,-45.62571079368354,108.05205042473972,-34.09956408571452,1758423568.6539216,1758423568.7225914
274,-21.91100969146646,54.0595299481065,196.42649800569052,-33.979286252113525,1758423568.6577487,1758423568.7264977
275,-19.59116998128593,83.93349432235118,287.7012102982844,-30.54278938169591,1758423568.6615756,1758423568.730404
276,-24.01620682378416,-0.8846693568048067,138.7681841829908,-23.486410692392383,1758423568.6653194,1758423568.7343102
277,-29.966469983235584,13.63817809743341,80.8959976247279,-17.58944858358882,1758423568.6690636,1758423568.7382164
278,-31.757642263750313,58.84778192261001,134.56794491503388,-9.749819349934114,1758423568.6728075,1758423568.7421227
279,-25.991777590708807,13.655870563408826,79.98419444076717,-8.980562804208603,1758423568.6765513,1758423568.746029
280,-24.56753947539255,-12.08043633919442,1.0527576649328694,-19.310068173435866,1758423568.6802955,1758423568.7499352
281,-24.12367240730964,15.534561921027489,-11.53199814481195,-22.607307469050284,1758423568.6840394,1758423568.7538414
282,-22.328153837806894,21.67567246570252,-8.208657161158044,-26.291286356950877,1758423568.6877832,1758423568.7577477
283,-22.694263537268853,21.196737088786904,-21.046602944494225,-30.241191872832133,1758423568.6915274,1758423568.761654
284,-16.550614625259186,10.86592236859724,-69.35899414110463,-25.868677460748586,1758423568.6952713,1758423568.7655602
285,-9.721555757947499,-10.194182574981824,-136.17706823785556,-21.510385047542513,1758423568.6990151,1758423568.7694664
286,-7.47576597474108,55.02549276856007,-56.66034115210641,-19.271660778176738,1758423568.7027593,1758423568.7733727
287,-6.0414683589478955,86.53051091043744,23.972448762331624,-23.557185716170352,1758423568.7065032,1758423568.777279
288,-9.859004126439686,-0.9651472955592908,-131.96092024917016,-26.35166191983444,1758423568.7102828,1758423568.7811852
289,-14.215874184650602,27.151597252115607,-166.4849422177067,-16.51310387229023,1758423568.7140622,1758423568.7850914
290,-10.880623973949696,75.96932825772092,-100.49947399535449,-12.026864176616073,1758423568.7178419,1758423568.7889977
291,-7.175665205024416,11.913756204070523,-205.19652919640066,-16.320000377148972,1758423568.7216215,1758423568.792904
292,-7.019358485704288,5.702247913111933,-224.05865055636968,-15.242663444121717,1758423568.725401,1758423568.7968102
293,-1.2851450850284891,20.27054239140125,-192.1505571071757,-16.009764057205757,1758423568.7291806,1758423568.8007164
294,7.423971987416735,35.03800888417754,-206.47564201633213,-23.111034656132688,1758423568.7329602,1758423568.8046227
295,4.433947670113412,36.96069028414786,-205.3753904143232,-25.83926439433708,1758423568.7367396,1758423568.808529
296,-4.86162857360614,-39.738130944024306,-311.09448941698065,-17.75339420529781,1758423568.7405193,1758423568.8124352
297,-4.239921193613554,30.426490700629074,-285.8266641024384,-9.302027711513801,1758423568.744299,1758423568.8163414
298,-5.567303411618923,143.8536666999571,-94.51674583129352,-12.1691155891167,1758423568.7480783,1758423568.8202477
299,-14.077151039673481,11.29035761632258,-215.93450669117738,-7.42753014084883,1758423568.751858,1758423568.824154
300,-15.667202969678328,-20.001371374877635,-370.2208516349201,8.004044571061968,1758423568.7556102,1758423568.8280602
301,-22.002001712549827,82.68342683819355,-245.33221884304658,1.6423922068061074,1758423568.7593625,1758423568.8319664
302,-30.782297364989063,14.113732596102636,-268.23887810570886,-13.955966134453774,1758423568.7631145,1758423568.8358727
303,-31.623707113263663,-2.9785210397676565,-362.60262887884164,-10.04366611703881,1758423568.7668667,1758423568.839779
304,-34.25287343529635,56.02573014178779,-317.1052718455321,-7.859990344499238,1758423568.770619,1758423568.8436852
305,-25.964934966468718,28.273944973188918,-331.61678041965934,-13.299883184401551,1758423568.7743711,1758423568.8475914
306,-13.516627393430099,12.975140195980202,-369.6545097295311,-10.530394370143767,1758423568.7781234,1758423568.8514977
307,-17.998583777225576,30.043590947287157,-355.3212917158962,-9.400149106411845,1758423568.7818756,1758423568.855404
308,-20.53629937900405,51.378193776123226,-338.3399539065431,-9.757622006087331,1758423568.7856278,1758423568.8593102
309,-16.688276201108238,92.28237687115325,-249.183945585537,-8.81183190421143,1758423568.7893798,1758423568.8632164
310,-17.209789712665952,68.56615849636728,-228.97562701255083,-11.542584696391714,1758423568.793132,1758423568.8671227
311,-11.280233234516345,9.625778470770456,-357.59140813665,-7.182826206983009,1758423568.7968843,1758423568.871029
312,-4.319022748168209,72.88850706949597,-282.8776016344782,-3.3646639746875735,1758423568.8007653,1758423568.8749352
313,-9.764684992391267,112.19219607685227,-151.47485371149378,-6.930818800406996,1758423568.8046465,1758423568.8788414
314,-15.13123184487631,35.12890214507934,-254.35938549751882,-2.53365914481401,1758423568.8085275,1758423568.8827477
315,-11.507340841315454,22.365537494129967,-303.6780913894763,0.9277463641410577,1758423568.8124087,1758423568.886654
316,-3.3732930342375766,57.471877064264845,-238.98641582400887,-3.8904264988959767,1758423568.8162897,1758423568.8905602
317,1.0577594933565706,56.761501810571644,-209.19385018010507,-3.6660450972412946,1758423568.8201709,1758423568.8944664
318,-6.249347413184296,30.78148131753551,-229.18918438561377,-2.555641695180384,1758423568.8240519,1758423568.8983727
319,-3.048988423877745,20.130311187007464,-242.23110091130366,3.1494077377865324,1758423568.8279328,1758423568.902279
320,17.10533521680918,105.19612673163647,-111.1441212783975,19.906997708232666,1758423568.831814,1758423568.9061852
321,21.145138660904195,163.60801663808525,12.906346129922895,25.359997519728495,1758423568.835695,1758423568.9100914
322,16.398956726770848,80.14926289883442,-80.73012835980626,20.896521793423744,1758423568.8395762,1758423568.9139977
323,14.922500982836937,75.39806471898919,-130.89530030431342,19.255409194665845,1758423568.8434572,1758423568.917904
324,8.090833086338534,124.4807951230323,-42.19381659917417,13.98814818610117,1758423568.847188,1758423568.9218102
325,6.240133866740507,59.93017152289394,-60.16093933299999,7.270951030041033,1758423568.8509188,1758423568.9257164
326,11.408276475754974,70.02831399353454,-82.52319805283332,-0.3481456024746876,1758423568.8546493,1758423568.9296227
327,19.902648200171825,153.04385922843358,13.18235741535318,4.192978423401655,1758423568.85838,1758423568.933529
328,15.043794567638543,137.68540247168858,72.86918606428662,17.716456858281163,1758423568.8621109,1758423568.9374352
329,2.0503315623500384,80.14677074697101,23.26740106282523,8.219943362244521,1758423568.8658414,1758423568.9413414
330,9.262151066031947,60.232199307589326,-45.51504396746168,-4.167140140707488,1758423568.8695722,1758423568.9452477
331,15.661525394498312,82.2797950488166,-19.63291710463818,5.32659025178873,1758423568.873303,1758423568.949154
332,15.19124643701798,142.56461984699126,131.02448480477324,7.2052613136474974,1758423568.8770337,1758423568.9530602
333,21.43075766457332,142.00872096978128,189.88886779654422,-0.8216403512487886,1758423568.8807645,1758423568.9569664
334,20.436601117864484,52.45952252839925,41.016189522255445,4.00553119095639,1758423568.884495,1758423568.9608727
335,14.80465455661033,76.67323595518246,63.06892685231287,6.213099300053727,1758423568.8882258,1758423568.964779
336,11.065866972050571,130.7158102215617,172.98847323318478,1.7663342695013853,1758423568.8930297,1758423568.9686852
337,6.6539361743271,67.7438071653014,62.72531825568876,1.5470215915411245,1758423568.8978336,1758423568.9725914
338,5.9266438540726085,55.24543916701805,32.64020050372346,-0.8951267981319688,1758423568.9026375,1758423568.9764977
339,7.341847718445933,89.01826117077144,109.42923819052521,2.5017499285531812,1758423568.9074414,1758423568.980404
340,5.589078574019368,108.8657369223074,134.15635679545812,9.500629331203527,1758423568.9122453,1758423568.9843102
341,0.9967513966257684,79.92730628233403,102.46217596397037,10.709081587068795,1758423568.917049,1758423568.9882164
342,-4.49308723764625,6.882279830169864,0.2927424817462452,17.68331292576113,1758423568.9218528,1758423568.9921227
343,-5.0888284924658365,99.7664842052036,77.10873304033885,25.119943057703495,1758423568.9266567,1758423568.996029
344,4.461190189333138,203.95405605679844,275.41391924076015,17.41702711951075,1758423568.9314606,1758423568.9999352
345,15.742167890883138,83.95656989770941,192.05925360505353,6.978176483564312,1758423568.9362645,1758423569.0038414
346,15.426339526278753,54.00269357301295,72.7832935093029,4.079219716217267,1758423568.9410684,1758423569.0077477
347,13.809817086053954,138.10065578640206,186.2411746919679,4.587146608793773,1758423568.9458723,1758423569.011654
348,23.727938923628244,79.42661114875227,175.67015629968955,15.801345658584978,1758423568.9496777,1758423569.0155602
349,27.41735520847942,51.27764762850711,84.55584591822117,27.40278290052629,1758423568.9534829,1758423569.0194664
350,21.527682830997946,105.48455784353428,139.81770888069877,26.787946066611767,1758423568.9572883,1758423569.0233727
351,17.707354482045048,110.04176255053608,176.7780704938923,22.825238663343043,1758423568.9610934,1758423569.027279
352,9.743508329513134,83.03810108778998,149.46112848693156,18.301018007516177,1758423568.9648988,1758423569.0311852
353,2.389840478899714,48.77504089154536,96.18794387354865,15.90404472073169,1758423568.9687042,1758423569.0350914
354,5.7419515919064,64.24144703993807,77.97352833440527,16.222993790428518,1758423568.9725094,1758423569.0389977
355,8.738784549910633,106.1675692689023,144.62554755594465,18.847540892130382,1758423568.9763148,1758423569.042904
356,6.830185198705294,96.58067135541933,182.9392974487855,19.7996973917152,1758423568.98012,1758423569.0468102
357,10.879537114182313,38.40886302484432,85.27412408479722,17.038343431848716,1758423568.9839253,1758423569.0507164
358,10.496284603133972,22.214345920016058,-9.660565150610637,20.11860649746859,1758423568.9877305,1758423569.0546227
359,7.454847614579194,115.45465765782865,141.28482447835268,19.080955061947407,1758423568.991536,1758423569.058529
360,13.886100526287919,108.03798787813867,210.97594250025577,12.593040399806114,1758423568.9953246,1758423569.0624352
361,6.20958674681242,-0.8439777154708281,17.22176440808107,10.675966362117492,1758423568.9991136,1758423569.0663414
362,0.9610415583083523,46.986775342724286,50.776757696905406,8.75357712195455,1758423569.0029023,1758423569.0702477
363,15.046742887983783,93.33484562701778,156.00671623292146,14.110902474157683,1758423569.006691,1758423569.074154
364,7.17450020691831,29.47655745485099,44.541641973599326,17.272703724556322,1758423569.0104797,1758423569.0780602
365,-2.5044436307452997,-1.39059137692675,-5.837884476786712,12.297236828421774,1758423569.0142684,1758423569.0819664
366,10.841811872995095,11.835773671395145,31.418317187111825,14.175744747476529,1758423569.0180573,1758423569.0858727
367,8.15546353990976,48.17647831526119,99.26484658566187,11.406567576400448,1758423569.021846,1758423569.089779
368,1.5293702902336008,-7.004032602999359,66.20314572381903,4.489581566709603,1758423569.0256348,1758423569.0936852
369,9.762256146143955,-92.4131323780166,-82.65189498889958,7.70769426608058,1758423569.0294237,1758423569.0975914
370,2.4309419572136903,16.18531948502641,30.115917819872266,7.563145997173706,1758423569.0332124,1758423569.1014977
371,-12.081486309243246,73.44115758646512,199.5664417828666,-5.585709935758132,1758423569.0370011,1758423569.105404
372,-8.442432817723784,-59.15074937080499,66.49127686565043,-11.203654173796167,1758423569.0407445,1758423569.1093102
373,0.36017311458567747,-46.85827936249552,16.890971301821992,-5.904957735470816,1758423569.044488,1758423569.1132164
374,-0.2607689906608357,12.935182452667505,117.60614799079485,-10.340066646220293,1758423569.0482314,1758423569.1171227
375,-8.914681669684796,-57.70133050327422,57.84534100876772,-15.490884165537864,1758423569.0519748,1758423569.121029
376,-14.409810198144555,-64.82014746661298,-6.224477167648729,-10.35088085922689,1758423569.0557182,1758423569.1249352
377,-9.155503273008435,-47.612165968865156,15.295801313011907,-3.8697651796173886,1758423569.0594616,1758423569.1288414
378,-7.021062548200916,-43.940672383934725,49.71059940586565,-2.026716907239461,1758423569.0632052,1758423569.1327477
379,-8.251687079079602,-16.77913814794738,100.71482319268398,-0.8061491663956986,1758423569.0669487,1758423569.136654
380,-1.4246400828569676,-65.18365362158511,25.736587770283222,9.422941104348865,1758423569.070692,1758423569.1405602
381,-0.21453814366577717,-56.528222666995134,-25.991814055319992,14.579347524617333,1758423569.0744355,1758423569.1444664
382,-2.1448741304348005,34.796623540401924,143.0849873226107,0.027538061476661824,1758423569.078179,1758423569.1483727
383,3.3220067121501415,-25.97952257259749,142.3499858211144,-11.476701951058203,1758423569.0819223,1758423569.152279
384,0.8213113205256377,-78.64831010700436,5.241058469444397,-6.183908507973683,1758423569.0856738,1758423569.1561852
385,-4.751495710172094,16.02888321626233,123.58450628475111,-1.98693331027971,1758423569.0894253,1758423569.1600914
386,0.0377504943699023,15.1818077431235,184.40540414198767,-0.514003448864969,1758423569.0931768,1758423569.1639977
387,-1.334231174316301,-54.6305032587552,67.75595903201611,5.855898827754572,1758423569.0969284,1758423569.167904
388,-7.127141914115782,-57.389565431076335,39.75060594173556,9.134552576284477,1758423569.1006799,1758423569.1718102
389,6.640398143836137,-40.080031133664306,70.39818394467875,16.303657262877095,1758423569.1044316,1758423569.1757164
390,10.802040575219507,-16.212770591955632,98.55142141287797,18.422426520017325,1758423569.1081831,1758423569.1796227
391,-14.857331166735094,-26.590200699632987,68.91875094232091,-7.779510665135604,1758423569.1119347,1758423569.183529
392,-16.60967912038177,-62.73830774781527,15.694805032595468,-19.201224680513405,1758423569.1156862,1758423569.1874352
393,-4.766467040084535,5.919118544552475,111.05414225784625,-7.677986709451943,1758423569.1194377,1758423569.1913414
394,-21.80909372329188,68.95314290112583,214.68432246006705,-22.456226486581727,1758423569.1231892,1758423569.1952477
395,-25.73040235762528,-17.02301304473076,97.79775990811322,-27.0241798631032,1758423569.1269407,1758423569.199154
396,-18.68608310624768,-21.256101366336225,27.261638208256045,-12.41610864059112,1758423569.1308053,1758423569.2030602
397,-28.010218644230918,51.21477511007106,114.99071328586433,-23.469376227461908,1758423569.1346698,1758423569.2069664
398,-25.636089528048615,33.31909834820544,122.6855488445035,-30.840220454949304,1758423569.1385345,1758423569.2108727
399,-19.61476323113311,27.893462896929123,93.47409380153476,-20.774181195505662,1758423569.142399,1758423569.214779
400,-18.324582367909898,38.51804325450212,67.13683668920021,-18.819803324819077,1758423569.1462636,1758423569.2186852
401,-11.130458907504362,44.66691141988849,63.43578565914868,-22.60414343393495,1758423569.1501281,1758423569.2225914
402,-6.945113643385412,35.53509019588819,79.10704470986639,-18.547674632558483,1758423569.1539927,1758423569.2264977
403,-2.7367849314177874,20.250609117472777,32.6155028406356,-6.850665171412402,1758423569.1578572,1758423569.230404
404,0.3589485330849129,60.88818180587259,38.910297948015796,-1.824725686245074,1758423569.1617217,1758423569.2343102
405,1.2427498898359772,95.218539676629,128.64510416591293,0.12177002624957822,1758423569.1655865,1758423569.2382164
406,6.3694854289678915,61.41960114578251,118.7062128966063,7.9244157623979845,1758423569.169451,1758423569.2421227
407,12.870820774409367,6.966793456405867,11.415628826551256,10.792998208795325,1758423569.1733155,1758423569.246029
408,15.288467869038868,43.0366551791376,53.72013887252251,9.136335389375745,1758423569.178169,1758423569.2499352
409,11.857450849660381,87.41661010467215,129.5627367121051,11.048530142237723,1758423569.1830225,1758423569.2538414
410,6.641627970166155,41.85532286579837,53.48178433426074,7.3086086295516,1758423569.187876,1758423569.2577477
411,2.4724060586377163,19.894383415259654,5.129354093915026,1.8182035009085666,1758423569.1927295,1758423569.261654
412,3.9134336307251942,60.32433997257613,42.27049935335526,6.107549672866298,1758423569.197583,1758423569.2655602
413,5.806464591594704,90.34948172172881,99.193274858917,9.179302429118252,1758423569.2024364,1758423569.2694664
414,0.4028661628544796,39.73982566370978,52.260657320017344,8.091972756621544,1758423569.2072902,1758423569.2733727
415,-0.43505298101808876,-9.743357753177406,-60.75052300597599,11.337741859162634,1758423569.2121437,1758423569.277279
416,3.5209105387621094,82.46223153593019,29.818539585350663,18.02039796077588,1758423569.2169971,1758423569.2811852
417,2.9765751498998725,163.72657055451418,209.3407640188525,15.088928602148371,1758423569.2218506,1758423569.2850914
418,4.436070016461599,56.09836505621206,120.2712602730171,1.4141233427726547,1758423569.2267041,1758423569.2889977
419,3.2240239399543498,8.977665377955418,-26.015972970693838,-2.3957190397268278,1758423569.2315576,1758423569.292904
420,-3.4574425849641557,86.92702994088177,59.00156174140284,5.960598490630218,1758423569.2340994,1758423569.2968102
421,6.814643485857232,39.26616452619783,61.72864252963336,16.28052580075746,1758423569.236641,1758423569.3007164
422,25.54720210412779,3.0507156090752687,3.724889326345874,20.774406031232502,1758423569.2391827,1758423569.3046227
423,21.852152833038417,52.31097090715775,82.47207930337754,15.731711740685569,1758423569.2417245,1758423569.308529
424,11.26779581134906,38.401095804030774,86.8244342963153,11.236250706897408,1758423569.244266,1758423569.3124352
425,15.63790162272926,-4.4684251302387565,31.48662091573351,12.59989284389303,1758423569.2468078,1758423569.3163414
426,18.534173756670498,-11.005929241800914,18.805367769586155,13.592332806554623,1758423569.2493496,1758423569.3202477
427,14.403348899293633,26.090368573582964,56.2576579109882,11.50010814275447,1758423569.2518911,1758423569.324154
428,17.46493582156836,22.369742901122663,121.98225556858233,9.79589031112846,1758423569.254433,1758423569.3280602
429,19.5392789126563,-41.11735982392565,116.6242989099701,4.902516157155333,1758423569.2569747,1758423569.3319664
430,14.45931915332767,-117.32537761054118,16.779965469555464,6.354240385568119,1758423569.2595162,1758423569.3358727
431,22.980067589662212,-155.25799275556346,-35.74789911080734,26.98887213965645,1758423569.262058,1758423569.339779
432,35.07407677722222,-82.38251586185652,148.4313091482618,34.888151098799426,1758423569.266994,1758423569.3436852
433,24.69179264237755,-89.98101958297775,237.27984939169255,18.036756481888006,1758423569.27193,1758423569.3475914
434,16.362851475350908,-213.15786483814009,44.22776008371147,16.4509557919082,1758423569.276866,1758423569.3514977
435,18.776729549936135,-196.2178283293906,69.89768277248368,25.093553658327437,1758423569.281802,1758423569.355404
436,10.680073822921258,-178.56642845619353,187.4616222695622,16.830038950414746,1758423569.286738,1758423569.3593102
437,5.6288423318910645,-284.811296104599,53.14638577704318,15.348725162752089,1758423569.2916737,1758423569.3632164
438,9.337648681808787,-306.22822452144464,-10.526567269174848,26.037083198301843,1758423569.2966096,1758423569.3671227
439,8.447477311157854,-220.51563240496034,134.22504560195375,20.366956473037135,1758423569.3015456,1758423569.371029
440,7.96525427125016,-220.82657218044915,215.43070083868224,10.966407982676174,1758423569.3064816,1758423569.3749352
441,21.032455739747093,-335.3657390871231,74.97439290495822,22.44757844535343,1758423569.3114176,1758423569.3788414
442,33.09434436967422,-339.8607535418414,11.411262576351874,34.49174456082983,1758423569.3163536,1758423569.3827477
443,26.150017417472554,-260.5264230777393,160.91911914816592,27.05286735286063,1758423569.3212895,1758423569.386654
444,21.853645099909045,-288.92362905529444,171.64640557119856,16.23511213164602,1758423569.3250773,1758423569.3905602
445,19.61061776817951,-328.4085557931685,70.69645674573258,15.835579787948518,1758423569.328865,1758423569.3944664
446,8.532190992526012,-282.49346828814305,111.36802913754946,15.980012916726992,1758423569.3326528,1758423569.3983727
447,2.145915238550515,-259.3636370569002,163.57486519910162,9.048240216026898,1758423569.3364406,1758423569.402279
448,-0.7837508575903485,-317.3509956851922,97.61222082120366,6.6315111195872305,1758423569.3402283,1758423569.4061852
449,6.422750332581927,-337.0136809272226,38.38689465407515,10.342125955197844,1758423569.344016,1758423569.4100914
450,13.996920126926852,-276.3281173504656,71.97216896124883,9.114638222265057,1758423569.347804,1758423569.4139977
451,7.460672224347945,-228.2293836829922,156.75788211548934,9.186681073435466,1758423569.3515918,1758423569.417904
452,5.797988126243581,-259.66737600982015,140.82669283554424,10.726590012840461,1758423569.3553796,1758423569.4218102
453,-0.8552205612941179,-308.1759826727357,11.42164901283104,5.423644970331225,1758423569.3591673,1758423569.4257164
454,-10.169625954265939,-238.65477775329782,29.575187346548773,4.237146741550532,1758423569.362955,1758423569.4296227
455,2.0442016979213804,-170.7719510330644,141.784181681287,7.068332988477778,1758423569.3667428,1758423569.433529
456,10.687602608697489,-165.1048808637861,70.19392209808575,4.648812148865545,1758423569.3775249,1758423569.4374352
457,6.133591436984716,-59.77672202681424,-32.91173550253734,1.3405396407179069,1758423569.3883066,1758423569.4413414
458,4.557489296712447,19.139388214767678,62.24610052263597,-9.483170571445953,1758423569.3990886,1758423569.4452477
459,-1.00369736290304,-11.993080333486432,116.25659017759608,-19.464456231566146,1758423569.4098706,1758423569.449154
460,-2.4849456930242013,-39.68984391406411,-9.467430818418507,-10.376810010508052,1758423569.4206524,1758423569.4530602
461,4.833831823052606,-42.38577305027866,-38.48115990014048,-4.007423684190144,1758423569.4314344,1758423569.4569664
462,-1.8525540859991452,14.494226790353423,64.06822739297058,-12.664590472559212,1758423569.4422164,1758423569.4608727
463,-12.902744420163799,31.674960749282036,109.25058977637673,-13.964034731587162,1758423569.4529982,1758423569.464779
464,-9.207663608758594,-33.123197672946844,35.20283069368452,-6.396846367875696,1758423569.4637802,1758423569.4686852
465,-8.995745323743904,-18.08517457570997,-1.2635688699083403,-5.380801463252283,1758423569.4745622,1758423569.4725914
466,-6.214271073928103,41.8795644484926,136.40419700636994,-9.469294864262338,1758423569.485344,1758423569.4764977
467,10.859822761020041,-5.622887357778382,146.446160492138,-17.658538945077453,1758423569.496126,1758423569.480404
468,10.31114537511894,-57.38844386153505,24.28321621567011,-23.213475511976867,1758423569.4965825,1758423569.4843102
469,-4.476662727771327,-9.227394830726553,99.06237825134303,-14.952684963980573,1758423569.497039,1758423569.4882164
470,-3.389065446826862,-9.221564725565258,153.25573503645137,-7.4045038758195005,1758423569.4974957,1758423569.4921227
471,-1.6639661951048765,-60.49570268508978,73.9831832308555,-7.467525819534785,1758423569.4979522,1758423569.496029
472,-6.1488981124566635,-83.50911993806949,46.91835555201396,-6.121673997404287,1758423569.4984088,1758423569.4999352
473,-1.6610687745269388,-82.68986704663257,72.65420065599028,-3.0127109822497005,1758423569.4988654,1758423569.5038414
474,1.0031191727757687,-35.59833081322722,141.74949518276844,1.7499634134874213,1758423569.499322,1758423569.5077477
475,-3.434806182878674,-48.17854848119896,129.13145902438555,2.130735409387853,1758423569.4997785,1758423569.511654
476,-2.0191425025259377,-110.24569075930049,26.69400122575462,-3.6956975052307826,1758423569.500235,1758423569.5155602
477,-1.0188156767108012,-28.329765207134187,117.81829463934992,-8.6021066566027,1758423569.5006917,1758423569.5194664
478,-6.453207397949882,24.907053667353466,272.1700475731632,-8.367757858446566,1758423569.5011482,1758423569.5233727
479,-3.173577018038486,-105.13637437278521,144.52467654109932,3.2484106841438916,1758423569.5016048,1758423569.527279
480,2.4393236233881908,-94.36191877364763,65.30469517037272,13.101029241704964,1758423569.5077112,1758423569.5311852
481,-0.20542216584726702,-0.47551403249963187,204.5792739879107,7.596283584440243,1758423569.5138178,1758423569.5350914
482,3.3956126080447575,-76.01488531965879,178.08831205882598,-2.3303840488370042,1758423569.5199242,1758423569.5389977
483,5.5943726890400285,-98.41164420577115,108.9458559055347,-4.836938991720672,1758423569.5260308,1758423569.542904
484,-3.0945494797924766,-39.93874427911942,174.83391761395615,3.092340738294297,1758423569.5321372,1758423569.5468102
485,-5.821192102637724,-61.85130790216499,177.12438881432172,3.330564309231704,1758423569.5382438,1758423569.5507164
486,-0.2580191899614874,-90.95134232196142,137.3710936551215,-3.056683923714445,1758423569.5443501,1758423569.5546227
487,0.6609015349531546,-86.26391033199616,127.29148579773027,-0.3310039374482585,1758423569.5504565,1758423569.558529
488,-0.4714401543169515,-83.80857410520548,115.2674695928581,2.1810833778290544,1758423569.5565631,1758423569.5624352
489,10.163741796277463,-16.108953237126116,243.48189489205834,7.994438281224575,1758423569.5626695,1758423569.5663414
490,19.66032013365475,11.331301202764735,334.79871420247946,14.501453836375731,1758423569.5687761,1758423569.5702477
491,13.63214793446241,-90.4408501922153,153.2539956184337,17.74292777356459,1758423569.5748825,1758423569.574154
492,11.46240055434464,-60.45599604197196,138.05876854551025,20.535236469848314,1758423569.5762956,1758423569.5780602
493,16.358941357582808,11.51043687335914,244.26208308362402,10.645441301167011,1758423569.5777087,1758423569.5819664
494,17.098491596174426,-50.250662232981995,125.42896605748683,1.7319155434815912,1758423569.579122,1758423569.5858727
495,15.096289965251344,-52.96275370370131,76.97337985481136,3.259012879425427,1758423569.5805352,1758423569.589779
496,12.931119861052139,-12.196278611547314,133.33949685283005,5.695068315617391,1758423569.5819483,1758423569.5936852
497,14.85546891822014,-11.919513384113088,109.42067820974626,9.298020774469478,1758423569.5833614,1758423569.5975914
498,17.187382117990637,-29.771079706551973,35.42682487319689,8.528053464789991,1758423569.5847745,1758423569.6014977
499,16.140318763107643,-37.89033810078399,-1.121514297905378,8.64135281072231,1758423569.5861876,1758423569.605404
500,12.133032362398808,24.924343939637765,67.46692833979614,13.029330086967093,1758423569.5876007,1758423569.6093102
501,12.2067920526315,86.79965076647932,138.42725369415712,11.772795866592787,1758423569.589014,1758423569.6132164
502,16.874953775695758,40.037323196884245,78.20787886355538,11.31698839715682,1758423569.5904272,1758423569.6171227
503,13.111892206550692,5.116771541070193,-20.72687141248025,13.947012056058156,1758423569.5918403,1758423569.621029
504,19.985512800645665,68.74195594881894,36.267036507837474,13.065344041693606,1758423569.5955968,1758423569.6249352
505,37.319258971110685,69.99172049295157,98.05407842830755,8.937826395806042,1758423569.599353,1758423569.6288414
506,33.029802506265696,-0.6639869557111524,-26.787654509069398,-1.9979945164814126,1758423569.6031096,1758423569.6327477
507,24.796773816618952,9.035788794106338,-87.21324661932886,-11.730829582273145,1758423569.6068661,1758423569.636654
508,28.534843177490984,78.1299742377596,43.817439338890836,-7.2159182295145,1758423569.6106224,1758423569.6405602
509,32.32320405858627,61.51479062408907,62.07063027471304,3.675968166979146,1758423569.614379,1758423569.6444664
510,34.71904387975519,2.3941284469910897,-69.33384098880924,11.168683697716915,1758423569.6181355,1758423569.6483727
511,32.40561586790136,48.570714840258006,-42.40349900815636,17.533520482989843,1758423569.6218917,1758423569.652279
512,27.24846561376762,100.09342266700696,89.00272559537552,14.556204877633718,1758423569.6256483,1758423569.6561852
513,20.520472201053053,57.844135075691156,66.08994342200458,3.4271598152117804,1758423569.6294048,1758423569.6600914
514,10.50540767388884,7.872001078620087,-52.65961221605539,10.91859077985282,1758423569.633161,1758423569.6639977
515,5.354066952990252,34.11015154107008,-26.30984124005772,26.00664335730835,1758423569.6369176,1758423569.667904
516,11.43057546018099,84.02117977163289,80.69552003243007,29.24014935118612,1758423569.6418679,1758423569.6718102
517,16.908758086836315,45.95803863159381,31.77016549790278,29.14546234635054,1758423569.646818,1758423569.6757164
518,11.302233859940316,4.045817480422556,-36.45731142768636,22.89542667333444,1758423569.6517682,1758423569.6796227
519,9.505754497440648,68.78322305739857,60.07969130738638,23.331265125394566,1758423569.6567185,1758423569.683529
520,13.006589639815502,112.52864803897683,150.8029708340764,31.358306662805262,1758423569.6616685,1758423569.6874352
521,12.730572546832263,20.41120231244713,52.559059044811875,25.495118969702162,1758423569.6666188,1758423569.6913414
522,14.006283862516284,-24.00934219395276,-29.46235567238182,18.74850026977947,1758423569.671569,1758423569.6952477
523,18.866984230888193,105.8173228300293,141.27892169426195,17.6761180547619,1758423569.6765192,1758423569.699154
524,23.54260601133865,150.6226457299199,281.05040321545675,7.109783173975302,1758423569.6814694,1758423569.7030602
525,21.962653455047985,31.80449071410112,157.91182266152464,2.5831165457784664,1758423569.6864197,1758423569.7069664
526,18.97586597825284,28.321523395425174,95.29627963691019,14.999339227710152,1758423569.6913698,1758423569.7108727
527,14.45387255398964,95.42560126277385,207.46762191457674,21.518223950173706,1758423569.69632,1758423569.714779
528,3.607696174789453,55.463693035475444,217.4238458899781,19.592778506266768,1758423569.7000546,1758423569.7186852
529,5.703144566141418,23.353593224543147,140.18393367365934,18.478840874522575,1758423569.7037892,1758423569.7225914
530,15.191453283725423,57.64991460024612,162.18155500199646,19.037385579838883,1758423569.7075238,1758423569.7264977
531,7.222357305858168,90.70582068996737,251.7180274561979,20.895756164041813,1758423569.7112584,1758423569.730404
532,1.0189439613604918,62.56676285684807,245.60554522369057,13.962794529448729,1758423569.714993,1758423569.7343102
533,1.8625057471508626,6.57196709048003,133.27898827567697,-0.16021648015885148,1758423569.7187276,1758423569.7382164
534,-7.132748262243695,27.838720767525956,104.86466245469637,-6.18564881052589,1758423569.722462,1758423569.7421227
535,-9.72655763833609,102.86049576109508,244.531826202292,-2.895973032718757,1758423569.7261965,1758423569.746029
536,-6.3002841346897185,82.83318116283044,293.41335882875137,-3.779846962876036,1758423569.729931,1758423569.7499352
537,-5.305185656136018,-4.992659599462058,118.02155325748026,-2.3353369496762753,1758423569.7336657,1758423569.7538414
538,-3.2530599484889535,47.84650609025266,112.03352743107826,6.1046734236733755,1758423569.7374003,1758423569.7577477
539,-6.509350372347399,123.0714352792711,287.471191664692,0.5712996064830804,1758423569.741135,1758423569.761654
540,-5.909370176450466,45.703830612357706,235.05039353482425,-7.800654538528761,1758423569.7449214,1758423569.7655602
541,-2.693718826107215,-3.3348664463264868,110.17493896558881,-2.4855623367766384,1758423569.748708,1758423569.7694664
542,-0.27943362104997505,49.70862948364811,191.01045506587252,0.08013243108871393,1758423569.7524946,1758423569.7733727
543,5.7211566085898085,72.52110338961938,267.93311036750674,-0.9030298227298772,1758423569.7562811,1758423569.777279
544,-1.26698369353835,24.12330902129179,180.6312854459975,-1.9789242511615157,1758423569.7600677,1758423569.7811852
545,-11.257653534106794,-0.11423539201496169,142.04044851311482,-3.0304370058875065,1758423569.7638545,1758423569.7850914
546,-9.385780100899865,74.66615507414099,251.96913457778282,2.543911842192756,1758423569.767641,1758423569.7889977
547,-6.06447507449775,129.79578812461114,350.4868369810283,0.9478691922558937,1758423569.7714276,1758423569.792904
548,1.458951267588418,43.83650952868629,267.5386202081572,-0.02409632758644875,1758423569.7752142,1758423569.7968102
549,2.008928144336096,-21.476555231201928,124.1714579728432,12.149474505757098,1758423569.7790008,1758423569.8007164
550,-8.596004327162518,61.47497699118685,218.26309216488153,14.296917655665311,1758423569.7827873,1758423569.8046227
551,-3.0253968065953813,93.12484266998945,308.06270730216056,12.119023393694079,1758423569.786574,1758423569.808529
552,8.175865919169155,26.601262843993027,171.04011172475293,12.953609134347062,1758423569.7903562,1758423569.8124352
553,5.263090425345581,53.2795799135929,150.50369117804803,7.471889191030641,1758423569.7941384,1758423569.8163414
554,9.549268294111243,98.31658642162802,230.36534904665314,10.382626948266989,1758423569.7979207,1758423569.8202477
555,15.011648498955765,52.067872838524636,179.79193962807767,15.48104304294975,1758423569.801703,1758423569.824154
556,0.29592769354349,32.74591066763969,119.11847767978907,3.941824738983996,1758423569.8054852,1758423569.8280602
557,-2.8329501984262606,58.97075492324075,117.03120580152608,-7.264876553468639,1758423569.8092675,1758423569.8319664
558,9.672671074949903,80.53832638816675,142.11515040369704,-0.09629923723696265,1758423569.8130498,1758423569.8358727
559,1.7046108776557958,86.72043207817478,166.3536777331028,13.541157069455949,1758423569.816832,1758423569.839779
560,2.0558886075014016,53.32103957718937,100.6422592191957,22.268427729039104,1758423569.8206143,1758423569.8436852
561,21.038705777871655,53.370024979289155,32.88329548481852,28.832561007977347,1758423569.8243966,1758423569.8475914
562,19.81165265799791,141.86552076466614,182.21893381606787,31.603154420809005,1758423569.828179,1758423569.8514977
563,17.20022252727358,154.45578258071328,278.384335514158,26.932453020868707,1758423569.8319612,1758423569.855404
564,25.598737634019926,66.94628085946897,70.08693271130323,26.147505147833726,1758423569.8368225,1758423569.8593102
565,29.990373079650453,100.54936479823664,26.467427995521575,36.53209880518261,1758423569.841684,1758423569.8632164
566,33.29070774711727,154.9246759727248,123.30463389167562,35.74171076215862,1758423569.8465455,1758423569.8671227
567,30.07276417905814,98.41879027889809,-4.009271586313844,22.836202016333118,1758423569.8514068,1758423569.871029
568,24.276489847528865,86.02798234368674,-91.40950107108802,16.064556218247162,1758423569.8562684,1758423569.8749352
569,21.53849462530343,111.00133126688888,-92.98428966896608,9.244681825482985,1758423569.8611298,1758423569.8788414
570,25.674398441406083,138.79372423322638,-114.53072566399351,10.315971377232927,1758423569.865991,1758423569.8827477
571,35.291595180358854,145.69363996665925,-140.34366174321622,18.87841385701904,1758423569.8708527,1758423569.886654
572,30.148160175711382,88.69498546182876,-272.1430268124677,20.848991252220003,1758423569.875714,1758423569.8905602
573,19.506833876337623,155.5058772287448,-265.57643294660375,21.81040857746848,1758423569.8805754,1758423569.8944664
574,15.294155640454846,241.05717846687185,-136.5926256221719,20.03126069997961,1758423569.885437,1758423569.8983727
575,13.19615142296243,106.32382530742325,-335.81487913709134,23.875564599133213,1758423569.8902984,1758423569.902279
576,20.125208982644835,74.42052248265827,-521.4748567920178,28.521610178577248,1758423569.8929334,1758423569.9061852
577,17.786702068551676,205.27202248497633,-354.6410789284855,15.41775690081704,1758423569.8955681,1758423569.9100914
578,5.522727902090992,175.08662294090027,-325.50014279130846,8.331778443403891,1758423569.8982031,1758423569.9139977
579,10.426794455008348,121.91701695939992,-478.85697147762403,12.628712563484441,1758423569.900838,1758423569.917904
580,13.299778812026489,166.47036432678578,-480.0648584133014,9.141041742666857,1758423569.903473,1758423569.9218102
581,4.696954322120291,152.52583587064873,-458.7687489981763,7.7938784754951485,1758423569.906108,1758423569.9257164
582,12.670879904777394,124.4109083074145,-505.8378002974205,11.59893939930771,1758423569.9087427,1758423569.9296227
583,25.792540945883957,158.48693137982627,-485.496801127214,12.981761386879953,1758423569.9113777,1758423569.933529
584,17.1876151166216,191.86699580808636,-425.3222759719938,14.307869397554896,1758423569.9140124,1758423569.9374352
585,6.035155038451194,197.97360442066565,-369.42598172603175,16.81425312416104,1758423569.9166474,1758423569.9413414
586,3.318562100714189,136.95836157386657,-401.0147225423716,18.99493614648236,1758423569.9192822,1758423569.9452477
587,-6.692849487400963,72.20489421446109,-544.6439243387431,14.389218087861082,1758423569.9219172,1758423569.949154
588,-11.428830553704756,151.0950897814473,-499.8332400158979,5.9659479216934415,1758423569.9270463,1758423569.9530602
589,-8.457175468400237,227.22020160523243,-304.1263439641334,2.5250189280923223,1758423569.9321754,1758423569.9569664
590,-12.30070243193768,140.1795229932759,-357.52293317299336,3.413896971673239,1758423569.9373045,1758423569.9608727
591,-11.904899940738687,75.12224030436482,-510.1560080652125,5.923452054354129,1758423569.9424334,1758423569.964779
592,-4.086367767275078,118.11854809295619,-442.25863454816863,2.8639219495817088,1758423569.9475625,1758423569.9686852
593,-1.652886945856153,108.48577585967723,-398.93988788407296,-0.275630382457166,1758423569.9526916,1758423569.9725914
594,-4.124163819418754,59.984163880115375,-491.37824687501416,3.3550541110162158,1758423569.9578207,1758423569.9764977
595,-6.259391766943736,71.01607034518383,-479.91808201838285,7.660765685272054,1758423569.9629498,1758423569.980404
596,-9.929790424866951,145.34802386711817,-348.8105878792703,11.407631744194077,1758423569.9680786,1758423569.9843102
597,-8.6465958050685,187.40775191265857,-237.9905986036174,6.190901786467293,1758423569.9732077,1758423569.9882164
598,-4.070219792236458,111.1692958487547,-310.805230113212,-4.59026124025695,1758423569.9783368,1758423569.9921227
599,-1.2032749774953118,116.18015865434427,-382.38344359304756,-1.8752708910906222,1758423569.983466,1758423569.996029
600,6.649400093083386,202.84768455981975,-255.84706041961908,8.090432148426771,1758423569.9859686,1758423569.9999352
601,9.909476772867492,164.27139549021376,-235.25650240993127,7.720131039299304,1758423569.988471,1758423570.0038414
602,11.716227750526741,144.43288095702883,-320.75572014739737,5.485053386873915,1758423569.9909737,1758423570.0077477
603,13.69780548493145,203.12275554565713,-275.8568590739742,11.207036687381333,1758423569.9934764,1758423570.011654
604,4.311407733912347,194.6093701030477,-221.32883223704994,12.705884229406365,1758423569.9959788,1758423570.0155602
605,0.9491142362967366,127.73224567028228,-300.13182101165876,10.05546009716636,1758423569.9984815,1758423570.0194664
606,0.1636390554049285,141.04553920018952,-352.5274716052227,7.780666966398712,1758423570.0009842,1758423570.0233727
607,-1.5387246860482264,221.50775026041083,-259.00987029774114,5.495837633876363,1758423570.0034866,1758423570.027279
608,13.782383289348218,198.7514686647337,-239.68825995130464,6.112293497557403,1758423570.0059893,1758423570.0311852
609,19.564418189198477,145.28133547422476,-320.9608069220558,-0.11763752783008385,1758423570.008492,1758423570.0350914
610,9.004933992197039,122.68022760754684,-412.99107161629945,-4.50254972287803,1758423570.0109944,1758423570.0389977
611,10.567134047974832,106.48245914804284,-480.25583461811766,8.137928340540384,1758423570.013497,1758423570.042904
612,13.851139369711746,198.36911299062194,-288.48006824217737,16.7621743746422,1758423570.0182297,1758423570.0468102
613,9.433514365999145,206.75103585340548,-175.56447658129036,7.743548444806947,1758423570.022962,1758423570.0507164
614,10.115406224300386,93.66360810981132,-375.93866599118337,1.4797197929292452,1758423570.0276947,1758423570.0546227
615,18.179062916446128,126.81192768999608,-344.2674066568725,7.7881437103351345,1758423570.0324273,1758423570.058529
616,19.523231493512867,151.3855787225766,-260.43646514602005,8.50523040164262,1758423570.03716,1758423570.0624352
617,9.549938947558985,84.88062159577385,-369.2424832144752,2.7738758640625747,1758423570.0418925,1758423570.0663414
618,7.263311259652255,68.04990594566334,-381.9890889436938,11.065084956164355,1758423570.046625,1758423570.0702477
619,14.063938833831344,129.97622111957753,-306.8212397075258,22.85030557801656,1758423570.0513575,1758423570.074154
620,21.85224898821616,223.10305915534263,-117.55402423487976,13.908903702016687,1758423570.05609,1758423570.0780602
621,25.225553414289607,128.76023209135747,-142.14658210473135,1.20759941743745,1758423570.0608225,1758423570.0819664
622,14.575091206541401,37.22819027531659,-359.7221382930875,4.871551304313471,1758423570.065555,1758423570.0858727
623,11.336086461422383,152.22735069412738,-200.25219522463158,5.762210758504807,1758423570.0702877,1758423570.089779
624,20.01895152423822,140.4829071284621,-89.4100016830489,-2.2111569625412812,1758423570.0741398,1758423570.0936852
625,17.86713067938399,56.48158761358354,-244.7073763194494,0.8300694456120254,1758423570.077992,1758423570.0975914
626,12.444186904889648,99.77597131673247,-222.64016852388158,7.7577086914971005,1758423570.0818443,1758423570.1014977
627,9.098923650351935,119.00419734901516,-154.42920588003471,3.7831701757240808,1758423570.0856965,1758423570.105404
628,11.962915460499062,76.71587207756238,-196.15375988185406,2.104192486120155,1758423570.0895486,1758423570.1093102
629,19.61451715221483,43.6726680911961,-281.3754870747216,5.7507739182328805,1758423570.0934007,1758423570.1132164
630,18.386813058816188,74.52854719787138,-314.13477403251454,8.501721701395581,1758423570.0972528,1758423570.1171227
631,20.47456946370221,122.98268306977116,-218.14589971490204,15.286754219298018,1758423570.101105,1758423570.121029
632,22.891775137650257,86.97642689401982,-190.22685054549947,16.957465884523117,1758423570.104957,1758423570.1249352
633,13.73177196700999,25.4779381279659,-311.7418086747639,10.847611004370265,1758423570.1088095,1758423570.1288414
634,6.493495379043452,34.620537450391566,-373.9422381776385,6.623419522191398,1758423570.1126616,1758423570.1327477
635,12.041796198558586,92.02044831801322,-255.8852250589989,4.359289118714514,1758423570.1165137,1758423570.136654
636,25.27384367241757,54.489083219115855,-236.86169485002756,10.656033497070894,1758423570.1203046,1758423570.1405602
637,23.92165389931324,-28.992162935610395,-428.3648061789572,16.80806173257588,1758423570.1240954,1758423570.1444664
638,14.133223093267588,11.277713326824596,-423.23741802340373,10.2056044475612,1758423570.1278863,1758423570.1483727
639,17.351868389290757,29.78999776567798,-346.97967765666544,4.916984666946519,1758423570.1316774,1758423570.152279
640,21.634586433734512,-28.65980003826553,-456.7777435979806,4.8372235587157775,1758423570.1354682,1758423570.1561852
641,24.11754488373117,-56.207720747508574,-528.5963455364108,8.739361252817616,1758423570.139259,1758423570.1600914
642,19.150735331568285,-52.53641502131359,-535.4898129482754,9.008542288851459,1758423570.14305,1758423570.1639977
643,7.981716770285857,-11.663840855937451,-472.06465479545295,-0.45398421640129527,1758423570.1468408,1758423570.167904
644,17.89383883176197,-57.337298573955195,-501.9030733820982,3.581586460422841,1758423570.150632,1758423570.1718102
645,25.429295641049976,-149.48144861671608,-708.2325750133023,18.062805529974867,1758423570.1544228,1758423570.1757164
646,13.137004644158878,-47.53349879026064,-630.6490319687873,18.57443157034868,1758423570.1582136,1758423570.1796227
647,8.661815471852606,29.945238862157566,-419.38461159868166,10.063706450622703,1758423570.1620045,1758423570.183529
648,10.163670248060953,-101.65861264435807,-568.7141735642217,7.413237547290919,1758423570.1657393,1758423570.1874352
649,14.207793301371566,-109.48061945046356,-701.9670146447606,8.310781124753703,1758423570.1694741,1758423570.1913414
650,17.18628024008649,-36.36494689958636,-593.3098729061894,6.971813630814722,1758423570.1732087,1758423570.1952477
651,10.043705248586775,-105.5536011858203,-627.3376541533507,6.834837893227814,1758423570.1769435,1758423570.199154
652,2.499396604660433,-121.07464907270332,-723.6150775360875,4.265731250830868,1758423570.1806784,1758423570.2030602
653,-5.079768412550038,-91.60404692859447,-713.6002047918737,6.3850835782141075,1758423570.1844132,1758423570.2069664
654,-9.318842144792143,-92.08625501576171,-704.3121424382553,11.270766661524249,1758423570.188148,1758423570.2108727
655,4.322346656364971,-58.29325726412935,-657.2150135110132,10.99273665628425,1758423570.1918828,1758423570.214779
656,24.968922707885213,-89.63737762538949,-694.85168830771,28.956994489883073,1758423570.1956177,1758423570.2186852
657,4.267412399538443,-91.67071402372676,-765.2080038441345,27.78853967370378,1758423570.1993523,1758423570.2225914
658,-49.54959920683177,1.829919073934434,-587.0896098315716,-25.15770031895954,1758423570.203087,1758423570.2264977
659,-53.904840418850654,-41.4686365344096,-528.8248882028274,-42.96719095741719,1758423570.206822,1758423570.230404
660,-28.776583475610096,-87.23256853294879,-674.1769200954586,-18.36641150200012,1758423570.2105742,1758423570.2343102
661,-41.7734697230444,30.59472852950421,-523.1220065765083,-24.469689248566283,1758423570.2143264,1758423570.2382164
662,-51.040407041091385,44.119673744309694,-378.6499787326902,-27.83939664086938,1758423570.2180786,1758423570.2421227
663,-40.24111436717794,-28.507025847837212,-491.5602262299508,-16.390525481932855,1758423570.221831,1758423570.246029
664,-49.584435363227385,-20.027981004004687,-501.4141522911377,-28.770906794110488,1758423570.2255833,1758423570.2499352
665,-58.72935195586251,-0.8423236665130389,-419.1777266240679,-40.271435682851006,1758423570.2293355,1758423570.2538414
666,-50.05616466612264,36.28759472751699,-328.61158131062984,-38.07704124722659,1758423570.2330878,1758423570.2577477
667,-47.70506407015637,43.61900682203304,-272.37040933640674,-34.84876443823305,1758423570.23684,1758423570.261654
668,-56.27434540570175,-6.090049046862987,-331.8176633147523,-35.268740671584965,1758423570.2405925,1758423570.2655602
669,-59.37151025076673,74.42024699654212,-221.77738557988778,-39.04622883706179,1758423570.2443447,1758423570.2694664
670,-54.0855722123415,158.08900472689857,-6.02070039184764,-33.944988602183,1758423570.248097,1758423570.2733727
671,-48.857824176364375,61.835094659763854,-113.6803236999549,-30.126095731571695,1758423570.2518492,1758423570.277279
672,-41.1939350976063,66.65820393851754,-196.0078404364176,-30.43903648880587,1758423570.2569718,1758423570.2811852
673,-36.02115517805578,145.00667342761153,-40.695901897735894,-27.91646071384821,1758423570.2620943,1758423570.2850914
674,-37.67512848532715,97.66401415634755,-36.05621445598081,-35.39162539747849,1758423570.2672167,1758423570.2889977
675,-36.67119073217691,89.04870411384763,-74.9442514674738,-37.240747399966494,1758423570.2723393,1758423570.292904
676,-33.632872508114815,122.34703127807006,-33.30211716424674,-21.950812341514393,1758423570.277462,1758423570.2968102
677,-29.456107992577017,129.56767460599076,4.2792387288063765,-16.518256229282997,1758423570.2825844,1758423570.3007164
678,-26.169193246150826,125.30045301593782,43.10075701912865,-25.77654301628354,1758423570.2877069,1758423570.3046227
679,-29.3475292426574,101.21098941993841,-2.2348045222461224,-31.341381523445307,1758423570.2928295,1758423570.308529
680,-31.43934960826482,109.22353466812638,-22.763094979338348,-31.9641833623391,1758423570.2979522,1758423570.3124352
681,-30.547603412747776,152.6677957293432,128.49090457009152,-35.710822051623836,1758423570.3030746,1758423570.3163414
682,-33.796481254252285,132.3148442049569,178.52841003378853,-33.42221356164737,1758423570.308197,1758423570.3202477
683,-30.719133804268495,62.11413721230929,14.805202865973115,-21.31617470661149,1758423570.3133197,1758423570.324154
684,-18.920144409052227,104.33592146915908,46.048510468099266,-18.211513475787797,1758423570.3156848,1758423570.3280602
685,-16.904643182344444,153.83226154447766,179.8399624368176,-17.942180222096795,1758423570.31805,1758423570.3319664
686,-21.030564038550438,95.05870084516937,92.56076740054414,-10.446388446533092,1758423570.3204148,1758423570.3358727
687,-16.579054571620873,66.25857372648898,30.509404263924807,-10.4152447574088,1758423570.32278,1758423570.339779
688,-13.327102212415411,77.89243061901652,71.47210544161499,-12.985769353032083,1758423570.325145,1758423570.3436852
689,-22.872551383417886,91.56905714140157,101.14882550574839,-12.686015011495329,1758423570.3275099,1758423570.3475914
690,-28.302844552230454,81.00259104490397,84.0949110626243,-14.799565094068384,1758423570.329875,1758423570.3514977
691,-23.713133125947934,50.58871566056041,37.83582474896684,-20.058383049279655,1758423570.33224,1758423570.355404
692,-28.32022107132434,79.1586981487635,104.53420165553689,-22.978914264283958,1758423570.3346052,1758423570.3593102
693,-34.196042564639356,103.4880001595302,169.7219300372526,-15.8331100014002,1758423570.3369703,1758423570.3632164
694,-26.195468361827807,34.4152865386568,55.22727950569242,-13.93578352404802,1758423570.3393352,1758423570.3671227
695,-15.717454116447698,-24.36149694712367,-88.16038232110441,-13.920120447382942,1758423570.3417003,1758423570.371029
696,-15.424398371551433,81.80707685797825,28.81510515138507,-6.196931665112061,1758423570.3454695,1758423570.3749352
697,-10.381950224122193,157.59773750111344,239.4903978984803,-8.093259402867261,1758423570.3492384,1758423570.3788414
698,3.5460661303823144,29.155395896028494,106.81393646169454,-11.560266400847468,1758423570.3530073,1758423570.3827477
699,-4.31231968846987,28.31025628640782,-0.752432401292026,-13.19745060113928,1758423570.3567765,1758423570.386654
700,-15.439970474657457,101.55209011817351,131.81779520306736,-18.94324203388169,1758423570.3605456,1758423570.3905602
701,-10.865576187199622,7.0820890118484385,54.69045305065811,-18.442060672976368,1758423570.3643146,1758423570.3944664
702,-15.754185523768683,-9.463360113790259,-53.959264563862234,-17.092128108906763,1758423570.3680835,1758423570.3983727
703,-15.985038479662762,29.486787498928607,-6.543187065515667,-12.51473351093955,1758423570.3718526,1758423570.402279
704,-9.830932346805639,56.89985173085006,128.8175588757731,-6.9600515075580915,1758423570.3756218,1758423570.4061852
705,-9.400420026453503,80.15728359547211,227.842848402448,-14.723649076808215,1758423570.3793907,1758423570.4100914
706,-7.842582055138337,-18.201731333567295,37.70800504507497,-19.274324397771124,1758423570.3831596,1758423570.4139977
707,-7.8438739771991095,-16.57601188478293,-7.0884805750101805,-13.938597596214095,1758423570.3869288,1758423570.417904
708,-1.7482561298838846,41.55988906370476,139.7226267713122,-10.364076035497419,1758423570.3918679,1758423570.4218102
709,-2.7281230610260536,-41.15704934619134,28.32413710281253,-10.687293318962475,1758423570.396807,1758423570.4257164
710,-20.680088309338316,-69.20307129417779,-42.277741679456085,-15.34958893791918,1758423570.401746,1758423570.4296227
711,-30.709641933848616,-27.745908127340954,38.07530675129965,-17.0270289461223,1758423570.406685,1758423570.433529
712,-22.589476774785,-15.393222852726467,73.6929995752871,-14.058204149190715,1758423570.4116242,1758423570.4374352
713,-10.709749138160987,-61.11753201211104,7.513453524094075,-10.090450189381954,1758423570.4165635,1758423570.4413414
714,-12.101750067748071,-99.15752093424089,-97.55078626051545,-7.359555963688763,1758423570.4215026,1758423570.4452477
715,-13.162475918641576,14.435345869453158,53.01571574341506,-5.44574624652887,1758423570.4264417,1758423570.449154
716,-6.411790517879126,63.2738491386408,208.0914394282736,-1.3085238395433407,1758423570.4313807,1758423570.4530602
717,-10.137646885119466,-69.38979833730264,19.060610085725784,-2.1505456986233185,1758423570.4363198,1758423570.4569664
718,-12.049380643478798,-79.7151478085434,-69.80597019242123,2.9828495331312297,1758423570.441259,1758423570.4608727
719,-5.150089363316511,30.30072874488542,118.31239171279594,14.133898922911612,1758423570.446198,1758423570.464779
720,-9.940065305992903,35.71297957299976,167.51089750090614,3.7610792158047843,1758423570.449989,1758423570.4686852
721,-14.433116753287322,-7.549744839547202,46.12419602274895,-3.9315650721146085,1758423570.4537804,1758423570.4725914
722,-2.99810566103406,21.75920625566505,35.11631324561313,8.373109833904891,1758423570.4575715,1758423570.4764977
723,6.7584121198051434,62.24016795295756,120.72719555301592,7.487965904434532,1758423570.4613626,1758423570.480404
724,2.669039664360753,30.413444863050245,109.83945136005059,1.0257833120558644,1758423570.465154,1758423570.4843102
725,-6.175513835125457,4.154704246495385,16.61923007434234,3.8451419792036177,1758423570.468945,1758423570.4882164
726,-3.698530809200747,49.72003459499683,9.144698680378497,2.669839034693723,1758423570.4727361,1758423570.4921227
727,-0.08722815518922289,90.97203147574328,100.35818683169782,-2.27825372244115,1758423570.4765275,1758423570.496029
728,-3.818546066609997,60.688274713931605,98.39806545618922,-10.417414296527568,1758423570.4803185,1758423570.4999352
729,2.199167683011183,26.20705751690548,-38.03321289597079,-16.10793361771357,1758423570.4841096,1758423570.5038414
730,8.730212010330433,77.29291846288834,-65.72230902966112,-9.604170892052935,1758423570.487901,1758423570.5077477
731,7.598191006378329,119.13454712799285,40.1894614007324,-0.8038096100681287,1758423570.491692,1758423570.511654
732,9.113083200449182,71.36041059740819,18.883685569511726,4.577273363353015,1758423570.49546,1758423570.5155602
733,8.43247108120704,47.31000997079536,-89.46722520166077,9.386350514581864,1758423570.4992278,1758423570.5194664
734,-1.7110930218623253,84.94761420157738,-71.79634413914755,8.497004492612177,1758423570.5029957,1758423570.5233727
735,-12.98632423050367,102.56204967468511,-38.63549294578843,3.675810660221032,1758423570.5067635,1758423570.527279
736,-12.131014202976075,64.66231535375118,-135.2288226452656,-3.9434257050670567,1758423570.5105314,1758423570.5311852
737,-12.677143505203276,21.83671342022717,-248.52468357491307,-9.633593837697845,1758423570.5142994,1758423570.5350914
738,-20.999796716034325,48.11146244057454,-258.13834364851937,-2.897403459504858,1758423570.5180671,1758423570.5389977
739,-16.03977750361446,103.58293816493824,-187.8937832498923,-4.0272215517143195,1758423570.521835,1758423570.542904
740,-6.835646825413278,67.52040273114108,-218.21814894489944,-14.552042047544091,1758423570.5256028,1758423570.5468102
741,-9.884774013855349,-14.071162194712088,-390.9917541684117,-11.6502735410686,1758423570.5293708,1758423570.5507164
742,-10.418915814629145,57.54594694112893,-354.8769108951092,-9.643825247640052,1758423570.5331385,1758423570.5546227
743,-2.248858184677374,128.81311396241654,-209.0225719003938,-13.007884987302532,1758423570.5369065,1758423570.558529
744,4.497503123835486,16.264363298541866,-383.980923215393,-8.714583631885034,1758423570.540784,1758423570.5624352
745,5.047673261760792,5.070089300861582,-527.9198402832262,-5.167126003365411,1758423570.544661,1758423570.5663414
746,0.821433801564126,82.5216346521629,-425.14089235127904,-7.155176155629306,1758423570.5485384,1758423570.5702477
747,2.999267551149387,34.193496064981446,-428.63576464238577,-5.9757874570350396,1758423570.5524156,1758423570.574154
748,13.930893299555464,-5.26440318103414,-546.1891074292362,-4.681563482175989,1758423570.556293,1758423570.5780602
749,18.420006524334894,15.003006658051163,-620.0156401831191,-4.133740142966417,1758423570.5601702,1758423570.5819664
750,9.712536905859452,45.07399608299602,-567.8205493849237,-3.6932267907432106,1758423570.5640476,1758423570.5858727
751,0.3305995463306317,46.59652526269201,-501.64635882456787,-10.06850085534461,1758423570.567925,1758423570.589779
752,5.194787460597581,-15.344309930573218,-615.5871228356846,-3.4229897828809044,1758423570.5718021,1758423570.5936852
753,8.93925543783189,-23.81791932496708,-704.4149283054285,8.131592233312404,1758423570.5756795,1758423570.5975914
754,2.2864340582345903,37.351831317530014,-572.2113204975612,1.0276278519922926,1758423570.5795567,1758423570.6014977
755,4.808227813882695,-6.778355644084513,-551.3953464613296,-1.2411300380590546,1758423570.583434,1758423570.605404
756,5.773954579846759,-81.96763810911216,-729.2286095027812,0.7814893229406152,1758423570.5882149,1758423570.6093102
757,-1.2690972293858067,-31.58716794231441,-687.2234141251538,1.2548228723862849,1758423570.592996,1758423570.6132164
758,0.00437882101687137,-13.989993000635877,-592.3304191126954,5.412259513290337,1758423570.5977767,1758423570.6171227
759,0.9995478989731055,-73.89068961981684,-713.5193696778733,-1.8440832577180117,1758423570.6025574,1758423570.621029
760,-5.460563690765412,-107.4091864072252,-762.7209150085691,-10.407185936564929,1758423570.6073384,1758423570.6249352
761,-13.044389840288204,-96.73104431724641,-696.6433039661497,-11.250834017064335,1758423570.6121192,1758423570.6288414
762,-10.768772362578602,-33.844425552058965,-643.5386831250507,-7.8013487296884705,1758423570.6169,1758423570.6327477
763,-5.645130379372858,-48.98594479786698,-640.2830318477936,-4.100467379565089,1758423570.621681,1758423570.636654
764,-9.363862826190598,-139.4652183233993,-721.6474108656403,-3.914468454873713,1758423570.6264617,1758423570.6405602
765,-5.376593008797499,-65.48282312857918,-696.156608525198,6.840324547702039,1758423570.6312425,1758423570.6444664
766,-1.5311474667760194,43.80459292314481,-512.36350842705,10.2005153645041,1758423570.6360235,1758423570.6483727
767,6.505177853767236,-63.211625139112584,-538.8144694785587,6.839687667979888,1758423570.6408043,1758423570.652279
768,29.723231155468966,-107.97864740376826,-674.1860953555442,24.347779598203488,1758423570.6433804,1758423570.6561852
769,13.064686256868299,-18.55398834659718,-566.0597259819042,14.167761085995153,1758423570.6459568,1758423570.6600914
770,-24.81239873215236,-62.65589693153743,-506.14903062791564,-18.940263228403637,1758423570.6485329,1758423570.6639977
771,-15.148638187085453,-96.62292410759255,-569.3904561293311,-7.4083927888241305,1758423570.6511092,1758423570.667904
772,-3.7856625231943326,-47.24394686636515,-510.6347719808109,5.962769020385167,1758423570.6536853,1758423570.6718102
773,-15.425055945474014,-48.62790655903518,-440.85077736503445,-4.993196576149785,1758423570.6562614,1758423570.6757164
774,-11.231720745417988,-69.66740680590738,-443.1471908658277,-4.7722917225255514,1758423570.6588378,1758423570.6796227
775,-8.111067537523923,-59.58026021323167,-429.9115205532871,-9.517504648727481,1758423570.661414,1758423570.683529
776,-16.36369441181887,-11.748993830056861,-350.8304448616691,-14.139400051797566,1758423570.6639903,1758423570.6874352
777,-14.92574279798282,10.211953619495034,-252.4764003737364,-7.6393769377609715,1758423570.6665664,1758423570.6913414
778,-4.465936609820346,-33.10084111383185,-237.92791654984467,-9.016162049647392,1758423570.6691427,1758423570.6952477
779,2.436337568680756,-84.26746927248314,-321.85908634611405,-9.066649723499722,1758423570.6717188,1758423570.699154
780,2.9072015204437776,-68.71456847875379,-323.72842995799147,1.362930012484867,1758423570.675489,1758423570.7030602
781,6.419538905043737,10.371168619720265,-126.27440791472327,7.771176990579988,1758423570.679259,1758423570.7069664
782,7.512499070151534,-7.186947716167197,-54.85162600374315,2.973046569593862,1758423570.6830292,1758423570.7108727
783,4.792902075329039,-93.56288063758984,-207.806516997749,6.569217504373228,1758423570.6867993,1758423570.714779
784,7.4278573665214935,-47.74855778669007,-149.07432529027574,14.796216850783821,1758423570.6905694,1758423570.7186852
785,6.842044210046879,-14.691756171174347,-27.971278361976147,6.819264526293409,1758423570.6943398,1758423570.7225914
786,8.667495979323576,-78.26046506641433,-124.00352269795258,1.466265536218998,1758423570.6981099,1758423570.7264977
787,12.347786833772261,-68.40676501393318,-121.39437884988729,6.510448858847667,1758423570.70188,1758423570.730404
788,8.054686782670615,-15.917617581086233,1.864618890103884,10.752208206398791,1758423570.70565,1758423570.7343102
789,13.17910120436136,3.6324539182242006,73.68434000504203,12.631610486107093,1758423570.7094202,1758423570.7382164
790,16.21041478870029,-30.15737064089626,45.067988089402206,14.461666156534193,1758423570.7131903,1758423570.7421227
791,7.85539910470834,-64.75020769191906,-15.532533055520616,23.0478804657796,1758423570.7169604,1758423570.746029
792,10.394357950142876,-16.728084567235783,82.82969857985154,24.800544812438602,1758423570.7207146,1758423570.7499352
793,9.726565919125278,-1.141241118311882,149.51395251287613,10.995160718201078,1758423570.724469,1758423570.7538414
794,6.058954285472282,-53.14396921545267,51.385532042593695,6.978695197594789,1758423570.728223,1758423570.7577477
795,13.158160418133775,-24.468866941984743,77.13541517057456,21.541845181927783,1758423570.7319775,1758423570.761654
796,13.480440944978909,7.0032997915986925,176.57179635536158,25.55761399871335,1758423570.7357316,1758423570.7655602
797,10.1328722459657,-65.10609860531986,113.68411086942069,12.416023326630238,1758423570.7394857,1758423570.7694664
798,9.02222006937518,-89.1541546988301,33.93994975084206,10.971607921706891,1758423570.74324,1758423570.7733727
799,3.385994001364452,-33.20063640805893,79.2912093611667,16.046232522941864,1758423570.7469943,1758423570.777279
800,-2.9998562634718837,15.286595880519599,235.42589446157217,12.073706006030989,1758423570.7507486,1758423570.7811852
801,0.29160664933442604,-4.9831623116042465,300.5704363177065,14.517874822817248,1758423570.7545028,1758423570.7850914
802,10.795352793400525,-80.44631199887954,163.44981157389702,22.122039989855693,1758423570.7582572,1758423570.7889977
803,7.785835719463648,-57.18314180383459,184.50664221998886,25.524210182866227,1758423570.7620113,1758423570.792904
804,-0.5930369953421177,-1.139101616339758,320.85389420296997,26.67006513387969,1758423570.7668831,1758423570.7968102
805,-2.077190091884404,-35.694012206746265,284.72372517263284,23.123341966464068,1758423570.771755,1758423570.8007164
806,-9.799401918244257,-67.73942048451863,236.5257266984263,19.17276534210032,1758423570.7766268,1758423570.8046227
807,-9.202083534692065,-31.010181851452217,287.4787544685678,17.008686522625794,1758423570.7814987,1758423570.808529
808,7.015774445972056,14.571345922537148,395.91366302530514,13.158693558561936,1758423570.7863705,1758423570.8124352
809,7.860305172551307,-50.49450343311764,360.00324785030534,10.854518690575787,1758423570.7912421,1758423570.8163414
810,-3.8582889630415593,-99.88621881324798,238.8019081663806,9.239292895817925,1758423570.796114,1758423570.8202477
811,-6.007536265722592,18.650949977803975,388.87463375514926,6.679779725185654,1758423570.8009858,1758423570.824154
812,-6.169457240001066,67.76760980649851,557.1169710393733,-1.532834435300174,1758423570.8058577,1758423570.8280602
813,-5.467167733593669,-34.757422984344885,445.63397518084093,-12.50842613200075,1758423570.8107295,1758423570.8319664
814,-2.73864224555291,-37.73163698031567,378.16174779250287,-7.021235792519292,1758423570.8156013,1758423570.8358727
815,-8.315907230295124,28.231570806587115,490.5280351751717,2.8944359822671686,1758423570.8204732,1758423570.839779
816,-10.14058250218659,-0.6305569594260305,510.55804587859893,0.39853472058166517,1758423570.8242462,1758423570.8436852
817,-4.706046902858361,-35.06425838335417,415.60982558783144,0.23100853459254722,1758423570.8280191,1758423570.8475914
818,-10.95044554809283,-8.398653820157051,414.41188315628096,0.23777965890258201,1758423570.831792,1758423570.8514977
819,-16.121644850420125,35.78022118285298,519.3740834461933,-10.674600738322624,1758423570.835565,1758423570.855404
820,-10.06911872625642,33.265953375259414,550.4477042765939,-19.818375038463273,1758423570.839338,1758423570.8593102
821,-6.118811439606361,-30.25876472168602,418.0368357406114,-12.722784312420117,1758423570.843111,1758423570.8632164
822,3.2349549250720884,-24.975939612369984,346.47979287680937,-0.6637212616551551,1758423570.846884,1758423570.8671227
823,6.319519107986707,78.85959741938859,540.7589943066123,-0.7326064208136813,1758423570.850657,1758423570.871029
824,-11.132008547705482,82.1333405955229,627.1206167865894,-6.100914234262746,1758423570.85443,1758423570.8749352
825,-14.754152288209298,-1.0363169230986387,421.0328017275315,-5.512883140869235,1758423570.858203,1758423570.8788414
826,-4.581735899679188,43.89362217951566,417.0904547451064,-3.8048220979544567,1758423570.861976,1758423570.8827477
827,-6.59615525155823,83.75450645433739,517.4780715960078,-5.266587890848314,1758423570.865749,1758423570.886654
828,-2.360690872403211,14.923332585953176,390.88113547320245,-1.0554915139218792,1758423570.8695695,1758423570.8905602
829,5.4034736753601464,-3.8817247059196234,311.55287650291575,1.9821196493321622,1758423570.8733902,1758423570.8944664
830,-1.807450170723314,24.9899636360351,337.8940440242877,-7.225776519182546,1758423570.8772109,1758423570.8983727
831,-8.325227538305626,48.11728169280104,348.6041895066155,-11.276833430529223,1758423570.8810315,1758423570.902279
832,-8.580125476168178,11.708985896781087,280.9363322510617,-11.639946668998164,1758423570.8848522,1758423570.9061852
833,-6.764239529926272,-40.38191500096582,159.73308721359354,-14.945759945796453,1758423570.8886728,1758423570.9100914
834,-5.559129322013177,42.59315605228767,229.23045833420474,-6.5953006129893765,1758423570.8924935,1758423570.9139977
835,-9.943087613733951,112.23996212030761,381.40319754520897,-2.629184325087408,1758423570.8963141,1758423570.917904
836,-4.864700043108314,13.079870738787577,267.59454193443526,-4.225006778302486,1758423570.9001348,1758423570.9218102
837,6.817118501945515,-49.78955407394096,70.47670615580864,10.577826065389672,1758423570.9039555,1758423570.9257164
838,6.464365496678511,30.195027579087764,151.61714709724765,18.519448568404187,1758423570.907776,1758423570.9296227
839,6.416433362348471,62.85108961863443,248.65878673805855,8.65496086730127,1758423570.9115968,1758423570.933529
840,10.82273207649996,5.81826701737009,121.13777540868614,4.050409707149811,1758423570.9153693,1758423570.9374352
841,12.314653490670025,8.610468784114346,80.64276223117486,2.119590278769465,1758423570.919142,1758423570.9413414
842,10.906092743418412,41.6023490994703,167.56423400668427,-0.9745399821294995,1758423570.9229145,1758423570.9452477
843,4.241035799423116,16.625585777685046,174.75729521585163,4.8628830801462755,1758423570.926687,1758423570.949154
844,1.7568261578853708,-10.934211478801444,124.571223734878,11.228201116242417,1758423570.9304597,1758423570.9530602
845,1.2791987453674665,-4.139570615487173,101.15791337878909,9.561393369938742,1758423570.9342322,1758423570.9569664
846,-1.8794608086172957,13.882130319718271,169.48761664121412,9.878919079928892,1758423570.9380047,1758423570.9608727
847,5.340733756311238,13.901154047809541,250.7740969558945,13.654663507291843,1758423570.9417775,1758423570.964779
848,15.127524669471313,-11.98590626846999,202.76727596926503,14.057477488961013,1758423570.94555,1758423570.9686852
849,12.3870879655733,-20.616452308837324,156.93463878252078,13.499049572485092,1758423570.9493225,1758423570.9725914
850,5.543488795883604,34.79401894658804,326.8939924443839,7.628033877565031,1758423570.9530952,1758423570.9764977
851,7.445632117771311,43.29259385867044,418.27203359419946,-1.9705772856541444,1758423570.9568677,1758423570.980404
852,9.790823696079315,-36.90995466313325,232.92581268947106,-0.9435480107968033,1758423570.96175,1758423570.9843102
853,6.4981491188082146,-15.494116601534188,237.02885763626546,5.350824196942995,1758423570.9666324,1758423570.9882164
854,5.566306576671195,17.626982795074582,329.71334617212415,6.24675841455246,1758423570.9715147,1758423570.9921227
855,3.7667312709381804,-49.19470128393732,200.04619848844595,7.683854340553808,1758423570.976397,1758423570.996029
856,7.079269441179349,-66.15425125788897,152.14860949805006,13.92148347642069,1758423570.9812794,1758423570.9999352
857,15.48912788979942,-60.228588425088674,173.37314251367934,13.588812156907807,1758423570.9861617,1758423571.0038414
858,14.769764557669987,-56.00479686912149,167.58669359399937,6.629281025707314,1758423570.991044,1758423571.0077477
859,12.624581978976494,-64.82584018539637,153.43913041590713,4.869995539833326,1758423570.9959264,1758423571.011654
860,8.855651965437573,-138.53534475620836,21.492417792789638,5.96669575616761,1758423571.0008087,1758423571.0155602
861,2.2990306121791946,-109.36104875989258,28.845173500245437,12.727703120370279,1758423571.005691,1758423571.0194664
862,10.56552607024787,-28.283699105028063,219.92346585798077,18.10146066375819,1758423571.0105734,1758423571.0233727
863,20.640330803318648,-139.7732772603631,116.888170724269,13.571329018042888,1758423571.0154557,1758423571.027279
864,13.797016112599522,-229.62863023253158,-99.16965377703309,9.132479017251171,1758423571.018184,1758423571.0311852
865,3.756705089661409,-145.9813815660309,46.1192824721802,-3.1225607720371045,1758423571.0209122,1758423571.0350914
866,-0.4632268817658769,-161.61940151895396,163.54735302412882,-11.561377566806186,1758423571.0236404,1758423571.0389977
867,3.544132062001154,-250.5341636594385,26.39378168503754,-0.5007698088702455,1758423571.0263686,1758423571.042904
868,11.449403635895578,-232.7513091606088,20.16050322004594,1.6335656328701589,1758423571.0290968,1758423571.0468102
869,14.501524439358036,-238.45814203564078,80.11826941440813,-5.975553661881349,1758423571.031825,1758423571.0507164
870,13.649738521402469,-294.7245594309643,42.85846929135732,-4.171686845214936,1758423571.0345535,1758423571.0546227
871,8.340202595529263,-284.9506936969701,58.12621336313896,0.9719387199111225,1758423571.0372818,1758423571.058529
872,2.797030425121193,-261.87893803068437,115.75900339242071,4.899415683164989,1758423571.04001,1758423571.0624352
873,0.23989460777374916,-269.4075160275679,209.6685469232034,4.647505284367071,1758423571.0427382,1758423571.0663414
874,2.842730853779358,-317.8249971871264,259.40824473882094,2.690202430343561,1758423571.0454664,1758423571.0702477
875,5.190965777961537,-379.0156359395478,165.25191039661877,2.399199013823818,1758423571.0481946,1758423571.074154
876,3.377513749015634,-338.3255031025037,216.96236250619404,0.04959655944185215,1758423571.0518246,1758423571.0780602
877,5.310428046519519,-287.07746184407733,424.18479786766693,-3.9310767573606427,1758423571.0554545,1758423571.0819664
878,6.383754345879424,-342.8764413087629,435.73537737107836,-8.046042126637985,1758423571.0590844,1758423571.0858727
879,12.53728349065932,-386.6155984411016,341.5094918454997,-4.551852084114216,1758423571.0627143,1758423571.089779
880,13.230346974989516,-358.29309637867846,415.17780494247563,1.8653293471088546,1758423571.0663443,1758423571.0936852
881,1.0298847348749405,-341.92668876680546,515.8940505255014,-1.7792985293908714,1758423571.069974,1758423571.0975914
882,7.047905203740811,-370.72801417158917,464.2702389806509,-0.6278617975076486,1758423571.0736039,1758423571.1014977
883,17.328845694180927,-401.80279411911033,405.59907926549204,8.65596579330122,1758423571.0772338,1758423571.105404
884,14.581414263608167,-355.8707617346663,469.98829814768396,3.519387517215364,1758423571.0808637,1758423571.1093102
885,14.749788238390465,-278.7579833450727,634.8893643505871,-7.376436024307623,1758423571.0844936,1758423571.1132164
886,15.44352814409649,-333.28568032733165,629.0660650206264,-5.952110240237744,1758423571.0881236,1758423571.1171227
887,12.570346922424505,-378.52531561860815,458.6453152419999,-6.003489041768262,1758423571.0917535,1758423571.121029
888,10.031287846053601,-315.9464960314799,505.2998721122276,-9.020417184903636,1758423571.0956404,1758423571.1249352
889,17.09836790697591,-341.275076192338,533.034137516981,-6.139417739266719,1758423571.0995274,1758423571.1288414
890,25.89803839683009,-375.2816351132933,373.06121571478434,-6.018363531462455,1758423571.1034145,1758423571.1327477
891,18.789665639502346,-304.640211165417,359.1626462507993,-5.537124469035916,1758423571.1073015,1758423571.136654
892,6.695449444494443,-237.59792520012707,475.6977425010409,-4.302305112421891,1758423571.1111884,1758423571.1405602
893,4.906687209717347,-253.91876372206025,459.8572740647942,-3.455999849767977,1758423571.1150756,1758423571.1444664
894,13.230967299154145,-276.3043410626706,293.08964256825857,3.897705921319357,1758423571.1189625,1758423571.1483727
895,21.446934603125555,-192.3542431050446,276.2414716151543,5.4633436562635325,1758423571.1228495,1758423571.152279
896,22.829468311814708,-104.9263152484782,446.77820934541523,5.494917159491706,1758423571.1267364,1758423571.1561852
897,24.36810231175332,-110.08884267276153,449.24476509168744,10.389857004243822,1758423571.1306233,1758423571.1600914
898,24.0578811190353,-143.83366822288372,262.5235818380024,6.448338211793271,1758423571.1345105,1758423571.1639977
899,19.868752528956975,-107.7959914917592,233.48234889563173,5.496634534907571,1758423571.1383975,1758423571.167904
900,23.494585899243248,-48.26428012968972,317.5569397183135,9.818204600253011,1758423571.143142,1758423571.1718102
901,28.062736908876104,-70.52878864761442,228.6855827800464,5.526339620537328,1758423571.1478865,1758423571.1757164
902,23.891427152513643,-80.02818748424761,120.201032895362,4.099761973942805,1758423571.152631,1758423571.1796227
903,20.248657774645835,-20.732587513746694,152.74110563774593,10.010007584364757,1758423571.1573756,1758423571.183529
904,20.11609935796878,4.074833036633208,140.1566450695973,10.756618204538427,1758423571.16212,1758423571.1874352
905,17.79191647087282,-31.03117465856485,12.902128058020025,5.889172496363244,1758423571.1668644,1758423571.1913414
906,10.739953617143328,-47.29686878062785,-82.05351317394525,8.413037598921619,1758423571.171609,1758423571.1952477
907,9.821332677893224,26.644240759313107,-35.2642414025031,16.993839876342463,1758423571.1763535,1758423571.199154
908,19.436423165607266,116.75642883311957,127.0968492582906,10.87544893935683,1758423571.181098,1758423571.2030602
909,24.36762680146785,55.707763492362574,98.48317709425464,-3.5475964317715807,1758423571.1858425,1758423571.2069664
910,20.81416561009246,-3.718123274622485,-77.3479707960505,-6.375870922515787,1758423571.190587,1758423571.2108727
911,15.188594843479223,73.98880539089441,11.441983099794015,-3.0058075530064343,1758423571.1953316,1758423571.214779
912,10.420380583775113,66.52612217282876,81.41106216679327,2.366260248956678,1758423571.1991804,1758423571.2186852
913,8.826378615267458,17.32526970235631,-20.22830611723475,7.034880278272794,1758423571.2030292,1758423571.2225914
914,10.680679140103166,48.83306680852547,11.243266808334738,8.8518690265048,1758423571.206878,1758423571.2264977
915,13.403608087959583,62.32418723125011,100.9452990856953,7.446234423698115,1758423571.2107267,1758423571.230404
916,10.362584916074411,31.35586904361844,128.1001809751615,-5.362955876653359,1758423571.2145755,1758423571.2343102
917,3.406466202417505,-24.721709299832582,47.66172842588276,-18.36600524733967,1758423571.2184243,1758423571.2382164
918,3.5671219406212913,-30.804855965310708,0.9063239991664886,-19.35344638168573,1758423571.2222729,1758423571.2421227
919,6.40203873894643,10.557887396076694,147.88211474847049,-15.995673674480372,1758423571.2261217,1758423571.246029
920,9.264031589453225,-11.564822454471141,244.25905121304095,-8.652400217237584,1758423571.2299705,1758423571.2499352
921,19.17169763764832,-85.3200627756305,123.93010225635953,5.838399892024654,1758423571.2338192,1758423571.2538414
922,20.643019992712652,-102.63364630821161,24.24298641923815,14.773306160734819,1758423571.237668,1758423571.2577477
923,11.660586160360253,-49.30703078350052,179.34819040982984,5.662926906243683,1758423571.2415168,1758423571.261654
924,9.522949434904149,-85.93920516152866,255.0483144519385,-7.614038698187869,1758423571.2452965,1758423571.2655602
925,5.484815190691734,-185.91273716045544,74.83281775051728,-5.021746075549345,1758423571.2490761,1758423571.2694664
926,2.6279359589971136,-173.05586563562974,87.37682858435437,5.886542574085979,1758423571.2528558,1758423571.2733727
927,10.273230585706187,-156.64928949135356,168.1991477261763,6.555670719715636,1758423571.2566357,1758423571.277279
928,10.664476451216615,-206.67412857804447,56.95379999303259,2.730184585338975,1758423571.2604153,1758423571.2811852
929,0.8378087471646722,-227.5681337781716,8.882490141084418,2.9755501681902388,1758423571.264195,1758423571.2850914
930,-10.670198578845884,-201.64675555494614,55.881653444841504,-2.21218346538717,1758423571.2679746,1758423571.2889977
931,-12.77370115451049,-147.36939883441664,148.55313537921757,-5.914532071468784,1758423571.2717543,1758423571.292904
932,-2.2798089599600644,-175.67078788788058,131.1954140609596,0.1919086256693845,1758423571.2755342,1758423571.2968102
933,-4.42874471891264,-258.5776651245542,-61.077131854137406,3.998502537731838,1758423571.2793138,1758423571.3007164
934,-10.6694634956948,-171.5807645986788,30.767742965603247,3.002641305252837,1758423571.2830935,1758423571.3046227
935,-0.8305078626435716,-85.86219007032923,293.6546258847229,-1.1109770912507884,1758423571.286873,1758423571.308529
936,-0.04163248615077464,-213.2141283310484,169.4947696130257,-2.830376075370623,1758423571.2906203,1758423571.3124352
937,-8.864662014988426,-239.87227378948592,34.799912638030946,-3.2482558410929414,1758423571.2943676,1758423571.3163414
938,-7.020521430946246,-168.6717501981184,175.49007490556687,-12.402728374040635,1758423571.2981148,1758423571.3202477
939,-6.807201517432986,-234.27446409710683,161.09617073857225,-11.292343572590653,1758423571.3018618,1758423571.324154
940,-15.121175337655586,-257.5952576112468,71.12046588677913,-4.719088362906405,1758423571.305609,1758423571.3280602
941,-15.183760425876244,-234.60345235210843,80.71728273225017,-6.979342660896691,1758423571.3093562,1758423571.3319664
942,-4.847126949120138,-223.99425219395198,117.82990046124905,0.9523765585572619,1758423571.3131034,1758423571.3358727
943,-5.138536476872105,-176.16229945071973,210.64023813349195,1.3516989366798953,1758423571.3168507,1758423571.339779
944,-6.7854359204211505,-205.93251402769238,137.6317575746216,-5.163691919389748,1758423571.3205976,1758423571.3436852
945,2.3308844691637205,-202.5196950880345,22.363501637475565,3.5629304691410653,1758423571.3243449,1758423571.3475914
946,-4.927548132945958,-89.3060326394625,208.66052570403554,0.9713618345085706,1758423571.328092,1758423571.3514977
947,-13.629775698878802,-112.9711085385643,261.0630193853285,-6.394060746068135,1758423571.3318393,1758423571.355404
948,-10.185943653996219,-186.17112856497988,50.73696008045226,-1.5698746186117205,1758423571.3355877,1758423571.3593102
949,-14.861728875228437,-100.16017370996997,119.00393442017958,-1.2323851393193763,1758423571.339336,1758423571.3632164
950,-13.485842795118515,-77.13445503567345,246.2204571356997,1.647461655034931,1758423571.3430843,1758423571.3671227
951,-8.542405594904267,-166.97447457839735,123.08257402549498,5.686643028666367,1758423571.3468325,1758423571.371029
952,-4.131508388658403,-175.45592407905497,57.13733900291845,2.505989411682094,1758423571.350581,1758423571.3749352
953,8.746088935447915,-150.5244790164288,79.74621724104509,-2.433001897234135,1758423571.354329,1758423571.3788414
954,16.31404848704551,-134.6766350865364,101.4889542912133,-11.660495904146956,1758423571.3580775,1758423571.3827477
955,20.5427838405667,-142.72828495060094,96.83623162703589,-13.177761358980206,1758423571.361826,1758423571.386654
956,21.854825918104325,-186.55356120225042,26.6526669471059,-6.945275523145028,1758423571.3655741,1758423571.3905602
957,12.076021509543352,-120.25463917152956,96.82599300495349,-9.453998691216839,1758423571.3693225,1758423571.3944664
958,10.896631434501614,-66.59265033178963,221.99456973630004,-7.850051752608124,1758423571.3730707,1758423571.3983727
959,19.406069480231963,-182.38204440358095,94.34971428895369,4.331778130890598,1758423571.3768191,1758423571.402279
960,12.42444605712808,-196.93215996585786,-6.164805046049878,7.750163175374837,1758423571.3819413,1758423571.4061852
961,3.8850837982681696,-135.4302755522076,81.20085264951922,4.285589658931713,1758423571.3870633,1758423571.4100914
962,2.49424828512565,-204.82317509851418,43.21513959346339,8.178395136104882,1758423571.3921854,1758423571.4139977
963,-3.73840441552602,-231.16751723992638,-31.47485213726759,6.874139274155823,1758423571.3973076,1758423571.417904
964,-6.380659169786668,-184.4928784549702,22.25295141618699,-3.0101588602956326,1758423571.4024296,1758423571.4218102
965,-6.552474850061117,-191.08575155283324,71.00378681230359,-3.2888883823761716,1758423571.4075518,1758423571.4257164
966,-6.79335245386028,-225.32939623994753,61.50387932383455,-0.06881151634843263,1758423571.412674,1758423571.4296227
967,-9.554031989297073,-235.43706087418832,30.749389224220067,-8.03386459606918,1758423571.417796,1758423571.433529
968,-13.006513507527416,-224.9417536398396,27.532511157682166,-15.834035556430536,1758423571.422918,1758423571.4374352
969,-8.154014375984843,-201.8647703982424,119.58196169068106,-14.650131282251095,1758423571.4280403,1758423571.4413414
970,-6.892770403086615,-199.05112134106457,183.47140539670363,-16.9732447624192,1758423571.4331622,1758423571.4452477
971,-9.74264447481255,-238.99299873807468,89.77186719072051,-21.41836986430644,1758423571.4382844,1758423571.449154
972,-7.261438396235462,-209.30956521397457,99.17854256322607,-21.80145127333526,1758423571.4406335,1758423571.4530602
973,-5.240890839108033,-156.5790904185269,172.1800429248251,-20.7864495766662,1758423571.4429827,1758423571.4569664
974,-5.614006616757251,-174.16514397412539,89.32940371171571,-18.95155627799977,1758423571.4453318,1758423571.4608727
975,-6.33639972628589,-153.57433869875968,85.87350545730442,-20.249966203675285,1758423571.447681,1758423571.464779
976,-6.369495471590199,-104.23588200425729,148.53671352029778,-14.9946477431331,1758423571.45003,1758423571.4686852
977,1.3114906420814805,-86.57583368732594,109.23959969868883,-4.120421303174226,1758423571.4523792,1758423571.4725914
978,14.767427278457035,-86.27548958477564,61.22164179361425,-0.11157867305519176,1758423571.4547281,1758423571.4764977
979,16.363394982588943,-70.07479884452187,102.25465879729018,1.3646586577415292,1758423571.4570773,1758423571.480404
980,5.923179906727455,-9.786827734904364,207.53997831023298,-4.273195628167741,1758423571.4594264,1758423571.4843102
981,0.9652792714114184,27.7949282922782,215.08659742190503,-11.095302588382765,1758423571.4617755,1758423571.4882164
982,2.858976860290568,-20.053067482775077,93.79957525478676,-4.728383173391194,1758423571.4641247,1758423571.4921227
983,5.751622317475267,-50.707302420632914,19.373248350108042,6.08481408906664,1758423571.4664738,1758423571.496029
,TP9,AF7,AF8,TP10,board_ts,unix_ts
0,0.79680715696355,40.57694797530786,115.25179735842705,2.7248835804487634,1758423571.4702568,1758423571.4941616
1,2.7053188042834613,71.91956708560977,294.29702788514624,6.722380289399362,1758423571.4740398,1758423571.4980679
2,5.175669771965809,-7.914574682330567,200.19883183400685,4.103715934978132,1758423571.4778228,1758423571.501974
3,3.547368928850302,-20.13002764530509,79.94460762101028,-2.3248317887586882,1758423571.4816058,1758423571.5058804
4,-7.010686399650254,39.3974675894525,173.9144681853959,-8.113057059910105,1758423571.4853888,1758423571.5097866
5,-15.128703994809072,-20.942410897039906,109.2946725424681,-14.409968598922013,1758423571.4891717,1758423571.5136929
6,-15.362902848374041,-46.817321878822895,-18.479005295234856,-13.162978191639588,1758423571.4929547,1758423571.517599
7,-15.710589368371018,-8.008964370408876,-16.556781835345646,-2.0487501193735937,1758423571.4967377,1758423571.5215054
8,-15.872188987360598,50.76106169001321,112.64644895825404,-0.1477165384354322,1758423571.5005207,1758423571.5254116
9,-17.08990615400438,80.73870736138258,212.775639109268,-11.34085429364908,1758423571.5043037,1758423571.5293179
10,-18.189692548503302,-13.492883108688716,37.269559455297895,-15.012871696392331,1758423571.5080867,1758423571.533224
11,-22.640760248926256,-4.5068247941093205,8.856649647195809,-14.804089934944471,1758423571.5118697,1758423571.5371304
12,-19.597109754058295,40.89951400208997,118.53695485216303,-11.030380794045413,1758423571.5167615,1758423571.5410366
13,-2.1971933235850543,-31.71518459650906,-5.245634155871812,1.636871714893914,1758423571.5216537,1758423571.5449429
14,-6.088279260414311,-33.59351666041675,-51.922292224617195,-1.7754430152157283,1758423571.5265455,1758423571.548849
15,-17.623547853005334,4.421635010518685,28.309259846479108,-14.511312187674093,1758423571.5314374,1758423571.5527554
16,-10.956317578029939,6.753544079067751,38.59597540532195,-11.600404546972982,1758423571.5363295,1758423571.5566616
17,-5.791342580842297,-32.345775188062134,-38.56260682939683,-3.0586814448095083,1758423571.5412214,1758423571.5605679
18,0.3852469791738713,-53.57859085861082,-104.83902224937628,2.131324717865141,1758423571.5461133,1758423571.564474
19,4.912647794652457,61.02763594205908,32.628954160532885,4.480131281393369,1758423571.5510054,1758423571.5683804
20,5.49845811251339,102.18942327365266,157.56769239493224,-1.8185940412441823,1758423571.5558972,1758423571.5722866
21,7.936885218087355,-40.41736624116356,-10.247642415793962,-4.115205480767372,1758423571.560789,1758423571.5761929
22,9.521855093607655,-86.14821221633429,-145.83467503935753,10.69610690243735,1758423571.5656812,1758423571.580099
23,15.811355544344906,3.005537070819628,5.77742000967919,19.94785569204123,1758423571.570573,1758423571.5840054
24,20.389585059487217,22.5134454075951,114.05797651646571,18.52767243462813,1758423571.574434,1758423571.5879116
25,20.446172301478782,-29.47672789735452,18.49915836749642,15.255344124546127,1758423571.578295,1758423571.5918179
26,19.178685108433456,-26.88502437823763,-3.2771660586367943,7.209938434030391,1758423571.5821557,1758423571.595724
27,16.416505247794248,17.1789550569506,108.33083817894658,9.009833556895728,1758423571.5860167,1758423571.5996304
28,15.318178914485088,-17.337653887204397,116.74303247231364,10.738457901237325,1758423571.5898776,1758423571.6035366
29,21.160750425170136,-72.39727908809891,16.523095433083654,5.7222516445622205,1758423571.5937386,1758423571.6074429
30,28.992315627735934,-30.167337330602095,26.470121155376546,14.15076310867903,1758423571.5975995,1758423571.611349
31,24.206980384260078,39.5857785602102,186.59325230758986,20.435997284180075,1758423571.6014605,1758423571.6152554
32,21.82468476833992,6.641945932643466,238.8425468540081,16.374126448515653,1758423571.6053214,1758423571.6191616
33,16.453645319110365,-63.68613662125608,108.46526713449566,10.291190653932063,1758423571.6091821,1758423571.6230679
34,0.6490523243601274,-14.271896233317875,131.41089005152025,0.766226519511747,1758423571.613043,1758423571.626974
35,4.834838297138049,16.096040637852184,257.0287744480811,0.44631725501858455,1758423571.616904,1758423571.6308804
36,13.205392791685426,-74.40583103839799,188.33726836521964,8.807370477372842,1758423571.6206553,1758423571.6347866
37,13.17028290297094,-98.96975542035261,132.4235655830489,12.19751274956593,1758423571.6244066,1758423571.6386929
38,13.210172757532746,-55.87795852986255,229.8542962045176,13.540615114758793,1758423571.628158,1758423571.642599
39,5.773396141525154,-70.59305609762032,265.0132970761915,14.660787493229464,1758423571.6319094,1758423571.6465054
40,3.4855056760068237,-129.04400253645372,180.48196157437633,8.073682207354295,1758423571.6356606,1758423571.6504116
41,12.311571828134674,-174.93617559945096,94.25336093433725,8.88869083896634,1758423571.639412,1758423571.6543179
