,TP9,AF7,AF8,TP10,board_ts,unix_ts
0,-75.1953125,-57.6171875,-479.98046875,-65.91796875,1758423567.5853834,1758423567.6561852
1,-81.54296875,-8.30078125,-390.13671875,-67.3828125,1758423567.5891633,1758423567.6600914
2,-82.51953125,-26.85546875,-398.4375,-68.84765625,1758423567.5929432,1758423567.6639977
3,-86.42578125,-66.40625,-465.8203125,-73.73046875,1758423567.596723,1758423567.667904
4,-88.37890625,-74.70703125,-458.984375,-78.61328125,1758423567.600503,1758423567.6718102
5,-85.44921875,-51.7578125,-416.9921875,-81.54296875,1758423567.6042829,1758423567.6757164
6,-86.42578125,-2.44140625,-348.14453125,-77.1484375,1758423567.6080625,1758423567.6796227
7,-88.8671875,-115.72265625,-442.87109375,-75.1953125,1758423567.6118424,1758423567.683529
8,-89.84375,-83.0078125,-480.46875,-71.77734375,1758423567.6156223,1758423567.6874352
9,-86.42578125,94.7265625,-193.84765625,-75.1953125,1758423567.6194022,1758423567.6913414
10,-71.77734375,-29.296875,-247.55859375,-86.42578125,1758423567.623182,1758423567.6952477
11,-75.1953125,-51.26953125,-364.2578125,-84.47265625,1758423567.626962,1758423567.699154
12,-85.44921875,13.671875,-278.80859375,-75.1953125,1758423567.630695,1758423567.7030602
13,-75.1953125,4.39453125,-241.69921875,-76.171875,1758423567.6344283,1758423567.7069664
14,-68.359375,-28.80859375,-305.17578125,-73.2421875,1758423567.6381614,1758423567.7108727
15,-67.87109375,8.30078125,-282.71484375,-74.21875,1758423567.6418946,1758423567.714779
16,-61.5234375,24.4140625,-238.28125,-71.77734375,1758423567.6456277,1758423567.7186852
17,-50.78125,-22.94921875,-284.1796875,-76.171875,1758423567.6493607,1758423567.7225914
18,-55.17578125,-5.859375,-248.53515625,-75.1953125,1758423567.6530938,1758423567.7264977
19,-56.640625,-20.99609375,-321.77734375,-61.5234375,1758423567.656827,1758423567.730404
20,-58.10546875,70.80078125,-219.23828125,-62.01171875,1758423567.6605601,1758423567.7343102
21,-66.89453125,43.9453125,-140.13671875,-69.3359375,1758423567.6642933,1758423567.7382164
22,-65.4296875,-34.66796875,-275.390625,-73.2421875,1758423567.6680264,1758423567.7421227
23,-64.94140625,47.8515625,-198.2421875,-78.125,1758423567.6717596,1758423567.746029
24,-66.40625,75.1953125,-114.74609375,-79.1015625,1758423567.676765,1758423567.7499352
25,-46.38671875,30.2734375,-165.0390625,-75.68359375,1758423567.6817706,1758423567.7538414
26,-60.05859375,-21.484375,-256.8359375,-82.03125,1758423567.686776,1758423567.7577477
27,-75.1953125,2.44140625,-230.95703125,-84.9609375,1758423567.6917815,1758423567.761654
28,-68.84765625,22.4609375,-182.12890625,-82.51953125,1758423567.6967869,1758423567.7655602
29,-81.54296875,2.44140625,-214.35546875,-86.9140625,1758423567.7017922,1758423567.7694664
30,-78.61328125,-46.875,-276.3671875,-81.54296875,1758423567.7067978,1758423567.7733727
31,-64.94140625,1.953125,-216.796875,-72.265625,1758423567.7118032,1758423567.777279
32,-63.4765625,120.1171875,-6.8359375,-74.21875,1758423567.7168088,1758423567.7811852
33,-62.5,21.484375,-79.1015625,-76.66015625,1758423567.7218142,1758423567.7850914
34,-66.40625,4.8828125,-158.203125,-73.2421875,1758423567.7268198,1758423567.7889977
35,-67.3828125,39.55078125,-104.98046875,-68.359375,1758423567.731825,1758423567.792904
36,-58.59375,18.5546875,-82.51953125,-68.84765625,1758423567.7344613,1758423567.7968102
37,-62.01171875,8.30078125,-75.1953125,-72.75390625,1758423567.7370977,1758423567.8007164
38,-70.80078125,-11.71875,-113.28125,-71.77734375,1758423567.739734,1758423567.8046227
39,-63.96484375,46.875,-20.99609375,-65.91796875,1758423567.7423701,1758423567.808529
40,-51.7578125,1.953125,12.6953125,-62.98828125,1758423567.7450066,1758423567.8124352
41,-57.6171875,-64.94140625,-79.58984375,-61.5234375,1758423567.7476428,1758423567.8163414
42,-64.94140625,3.90625,-6.34765625,-68.359375,1758423567.750279,1758423567.8202477
43,-54.19921875,24.90234375,73.2421875,-65.4296875,1758423567.7529154,1758423567.824154
44,-45.8984375,-25.87890625,43.9453125,-61.5234375,1758423567.7555516,1758423567.8280602
45,-48.828125,-83.984375,-21.97265625,-60.05859375,1758423567.7581878,1758423567.8319664
46,-53.7109375,-110.3515625,-115.72265625,-47.36328125,1758423567.7608242,1758423567.8358727
47,-59.5703125,-1.46484375,51.26953125,-55.17578125,1758423567.7634604,1758423567.839779
48,-49.31640625,-24.4140625,139.16015625,-63.4765625,1758423567.7682552,1758423567.8436852
49,-39.0625,-137.6953125,-40.0390625,-54.6875,1758423567.77305,1758423567.8475914
50,-46.38671875,-153.3203125,-93.26171875,-55.17578125,1758423567.777845,1758423567.8514977
51,-52.24609375,-61.03515625,52.734375,-56.640625,1758423567.7826397,1758423567.855404
52,-54.19921875,-56.640625,92.7734375,-55.17578125,1758423567.7874346,1758423567.8593102
53,-45.8984375,-204.1015625,-99.609375,-44.921875,1758423567.7922294,1758423567.8632164
54,-46.38671875,-178.22265625,-172.8515625,-45.8984375,1758423567.7970243,1758423567.8671227
55,-59.5703125,16.11328125,105.95703125,-65.4296875,1758423567.801819,1758423567.871029
56,-53.7109375,-79.1015625,101.5625,-76.66015625,1758423567.806614,1758423567.8749352
57,-43.45703125,-124.0234375,-53.7109375,-75.68359375,1758423567.8114088,1758423567.8788414
58,-50.29296875,-70.3125,-21.484375,-75.1953125,1758423567.8162036,1758423567.8827477
59,-49.31640625,-84.9609375,-4.39453125,-69.82421875,1758423567.8209984,1758423567.886654
60,-40.0390625,-133.7890625,-67.3828125,-63.4765625,1758423567.8260553,1758423567.8905602
61,-38.0859375,-120.60546875,-95.703125,-58.59375,1758423567.8311124,1758423567.8944664
62,-38.57421875,-72.75390625,-34.1796875,-45.8984375,1758423567.8361692,1758423567.8983727
63,-44.43359375,-93.75,-32.2265625,-38.57421875,1758423567.841226,1758423567.902279
64,-51.26953125,-119.140625,-98.14453125,-41.015625,1758423567.846283,1758423567.9061852
65,-62.01171875,-98.6328125,-106.93359375,-38.57421875,1758423567.8513398,1758423567.9100914
66,-62.01171875,-58.59375,-61.03515625,-32.71484375,1758423567.856397,1758423567.9139977
67,-40.52734375,-23.92578125,-1.46484375,-24.90234375,1758423567.8614538,1758423567.917904
68,-31.73828125,-39.55078125,-1.46484375,-36.1328125,1758423567.8665106,1758423567.9218102
69,-37.59765625,-106.93359375,-166.50390625,-35.64453125,1758423567.8715677,1758423567.9257164
70,-31.73828125,33.69140625,-0.9765625,-17.08984375,1758423567.8766246,1758423567.9296227
71,-27.83203125,64.453125,141.6015625,-33.203125,1758423567.8816814,1758423567.933529
72,-31.25,-34.66796875,-31.73828125,-42.48046875,1758423567.8841975,1758423567.9374352
73,-22.94921875,0.0,-19.53125,-30.76171875,1758423567.8867135,1758423567.9413414
74,-18.5546875,51.26953125,63.4765625,-29.296875,1758423567.8892298,1758423567.9452477
75,-16.11328125,52.24609375,61.5234375,-23.92578125,1758423567.8917458,1758423567.949154
76,-12.20703125,17.08984375,-15.13671875,-14.6484375,1758423567.8942618,1758423567.9530602
77,-18.5546875,33.69140625,-33.203125,-11.23046875,1758423567.8967779,1758423567.9569664
78,-9.27734375,124.51171875,107.91015625,-20.99609375,1758423567.899294,1758423567.9608727
79,-1.46484375,88.8671875,93.75,-19.53125,1758423567.90181,1758423567.964779
80,-18.5546875,35.64453125,-25.87890625,-17.08984375,1758423567.904326,1758423567.9686852
81,-27.34375,112.3046875,60.546875,-22.4609375,1758423567.9068422,1758423567.9725914
82,-31.73828125,124.51171875,135.25390625,-17.578125,1758423567.9093583,1758423567.9764977
83,-31.25,101.5625,101.5625,-21.484375,1758423567.9118743,1758423567.980404
84,-16.11328125,9.765625,-67.87109375,-16.11328125,1758423567.9156282,1758423567.9843102
85,-26.85546875,107.91015625,-16.11328125,-10.25390625,1758423567.9193823,1758423567.9882164
86,-42.48046875,229.98046875,236.328125,-28.3203125,1758423567.9231362,1758423567.9921227
87,-29.296875,100.09765625,115.234375,-29.296875,1758423567.9268904,1758423567.996029
88,-24.4140625,91.796875,31.25,-27.34375,1758423567.9306443,1758423567.9999352
89,-33.69140625,125.48828125,57.12890625,-33.203125,1758423567.9343982,1758423568.0038414
90,-30.76171875,167.48046875,129.39453125,-35.15625,1758423567.9381523,1758423568.0077477
91,-34.66796875,126.953125,122.0703125,-38.57421875,1758423567.9419062,1758423568.011654
92,-41.015625,87.40234375,-25.87890625,-35.64453125,1758423567.9456604,1758423568.0155602
93,-42.96875,178.7109375,82.03125,-38.57421875,1758423567.9494143,1758423568.0194664
94,-42.96875,168.9453125,150.87890625,-45.41015625,1758423567.9531684,1758423568.0233727
95,-35.64453125,138.671875,61.03515625,-37.59765625,1758423567.9569223,1758423568.027279
96,-40.52734375,143.06640625,58.59375,-27.83203125,1758423567.960679,1758423568.0311852
97,-41.9921875,195.80078125,139.6484375,-31.25,1758423567.964436,1758423568.0350914
98,-37.109375,174.31640625,129.8828125,-39.55078125,1758423567.968193,1758423568.0389977
99,-28.80859375,146.97265625,62.01171875,-34.1796875,1758423567.9719498,1758423568.042904
100,-30.2734375,137.20703125,45.41015625,-21.97265625,1758423567.9757066,1758423568.0468102
101,-45.8984375,148.4375,59.08203125,-32.2265625,1758423567.9794636,1758423568.0507164
102,-51.26953125,195.80078125,112.3046875,-44.921875,1758423567.9832206,1758423568.0546227
103,-45.41015625,130.859375,52.734375,-37.109375,1758423567.9869773,1758423568.058529
104,-40.52734375,174.31640625,112.3046875,-32.71484375,1758423567.990734,1758423568.0624352
105,-39.55078125,283.203125,291.015625,-34.66796875,1758423567.994491,1758423568.0663414
106,-35.15625,200.1953125,187.01171875,-30.2734375,1758423567.998248,1758423568.0702477
107,-26.3671875,206.0546875,158.69140625,-27.83203125,1758423568.0020049,1758423568.074154
108,-20.01953125,239.2578125,192.3828125,-31.73828125,1758423568.0058205,1758423568.0780602
109,-16.11328125,259.27734375,250.48828125,-18.06640625,1758423568.0096362,1758423568.0819664
110,-12.6953125,220.21484375,231.4453125,-11.23046875,1758423568.0134518,1758423568.0858727
111,-8.7890625,221.19140625,157.71484375,-16.6015625,1758423568.0172675,1758423568.089779
112,-7.32421875,286.62109375,255.859375,-9.765625,1758423568.021083,1758423568.0936852
113,-0.48828125,232.91015625,259.27734375,0.0,1758423568.024899,1758423568.0975914
114,6.34765625,228.02734375,222.65625,-1.953125,1758423568.0287147,1758423568.1014977
115,-14.6484375,239.74609375,202.1484375,0.0,1758423568.0325303,1758423568.105404
116,-20.5078125,316.89453125,335.44921875,-3.90625,1758423568.036346,1758423568.1093102
117,0.48828125,305.17578125,396.484375,-11.23046875,1758423568.0401616,1758423568.1132164
118,0.0,221.19140625,241.2109375,-7.8125,1758423568.0439773,1758423568.1171227
119,-9.27734375,231.4453125,246.09375,-1.953125,1758423568.047793,1758423568.121029
120,-3.41796875,271.484375,316.40625,2.9296875,1758423568.0526898,1758423568.1249352
121,6.34765625,258.7890625,309.08203125,1.953125,1758423568.0575864,1758423568.1288414
122,6.34765625,176.26953125,182.12890625,-1.953125,1758423568.0624833,1758423568.1327477
123,7.32421875,206.0546875,205.078125,-8.30078125,1758423568.0673802,1758423568.136654
124,-2.44140625,244.62890625,309.08203125,-4.39453125,1758423568.0722768,1758423568.1405602
125,-2.44140625,213.37890625,258.7890625,2.44140625,1758423568.0771737,1758423568.1444664
126,-2.9296875,165.0390625,175.78125,-5.859375,1758423568.0820706,1758423568.1483727
127,-23.4375,204.58984375,190.91796875,-15.13671875,1758423568.0869672,1758423568.152279
128,-22.4609375,335.9375,393.06640625,-20.01953125,1758423568.091864,1758423568.1561852
129,-13.671875,236.81640625,318.359375,-18.06640625,1758423568.096761,1758423568.1600914
130,-19.53125,214.84375,219.7265625,-16.6015625,1758423568.1016576,1758423568.1639977
131,-22.4609375,254.8828125,260.7421875,-15.13671875,1758423568.1065545,1758423568.167904
132,-20.5078125,241.2109375,276.3671875,-8.30078125,1758423568.109088,1758423568.1718102
133,-23.92578125,201.66015625,211.9140625,-15.13671875,1758423568.1116211,1758423568.1757164
134,-23.4375,208.984375,182.12890625,-22.4609375,1758423568.1141543,1758423568.1796227
135,-29.296875,245.60546875,243.65234375,-21.97265625,1758423568.1166878,1758423568.183529
136,-41.9921875,191.40625,202.1484375,-31.73828125,1758423568.1192212,1758423568.1874352
137,-37.59765625,151.3671875,114.2578125,-36.1328125,1758423568.1217544,1758423568.1913414
138,-39.0625,198.73046875,120.1171875,-41.50390625,1758423568.1242876,1758423568.1952477
139,-35.64453125,238.76953125,200.1953125,-48.33984375,1758423568.126821,1758423568.199154
140,-39.55078125,213.37890625,201.66015625,-52.734375,1758423568.1293545,1758423568.2030602
141,-43.9453125,158.69140625,91.796875,-48.33984375,1758423568.1318877,1758423568.2069664
142,-36.62109375,101.07421875,-58.59375,-34.66796875,1758423568.1344209,1758423568.2108727
143,-41.50390625,206.0546875,94.23828125,-35.64453125,1758423568.1369543,1758423568.214779
144,-40.52734375,237.79296875,240.234375,-41.50390625,1758423568.1418915,1758423568.2186852
145,-34.1796875,118.65234375,35.64453125,-43.9453125,1758423568.1468287,1758423568.2225914
146,-43.45703125,140.625,16.11328125,-51.7578125,1758423568.1517656,1758423568.2264977
147,-55.17578125,193.359375,105.95703125,-59.5703125,1758423568.1567028,1758423568.230404
148,-52.24609375,163.0859375,73.73046875,-55.17578125,1758423568.16164,1758423568.2343102
149,-46.875,67.87109375,-84.47265625,-50.29296875,1758423568.1665769,1758423568.2382164
150,-55.17578125,138.18359375,-41.9921875,-56.15234375,1758423568.171514,1758423568.2421227
151,-54.6875,231.93359375,144.53125,-62.5,1758423568.1764512,1758423568.246029
152,-54.19921875,176.7578125,104.4921875,-61.5234375,1758423568.1813884,1758423568.2499352
153,-63.4765625,129.39453125,-10.25390625,-62.98828125,1758423568.1863256,1758423568.2538414
154,-61.03515625,138.18359375,-27.34375,-60.546875,1758423568.1912625,1758423568.2577477
155,-51.26953125,202.63671875,107.91015625,-54.6875,1758423568.1961997,1758423568.261654
156,-54.19921875,160.64453125,58.10546875,-52.24609375,1758423568.2000115,1758423568.2655602
157,-57.12890625,171.38671875,16.11328125,-54.6875,1758423568.2038236,1758423568.2694664
158,-51.7578125,208.0078125,75.1953125,-55.17578125,1758423568.2076354,1758423568.2733727
159,-56.640625,168.45703125,70.80078125,-56.15234375,1758423568.2114472,1758423568.277279
160,-63.96484375,126.46484375,12.6953125,-63.4765625,1758423568.215259,1758423568.2811852
161,-67.87109375,131.8359375,-29.78515625,-63.96484375,1758423568.219071,1758423568.2850914
162,-65.91796875,187.98828125,57.6171875,-63.96484375,1758423568.222883,1758423568.2889977
163,-66.40625,187.01171875,115.72265625,-67.3828125,1758423568.2266948,1758423568.292904
164,-66.40625,125.9765625,28.80859375,-64.453125,1758423568.2305067,1758423568.2968102
165,-68.84765625,131.8359375,-32.2265625,-54.19921875,1758423568.2343187,1758423568.3007164
166,-74.21875,203.61328125,69.3359375,-56.640625,1758423568.2381306,1758423568.3046227
167,-71.2890625,189.94140625,126.953125,-66.89453125,1758423568.2419424,1758423568.308529
168,-72.75390625,105.46875,29.296875,-72.75390625,1758423568.2456877,1758423568.3124352
169,-72.75390625,98.6328125,-4.39453125,-77.63671875,1758423568.249433,1758423568.3163414
170,-77.63671875,175.78125,98.6328125,-81.0546875,1758423568.2531784,1758423568.3202477
171,-83.49609375,147.4609375,83.49609375,-82.51953125,1758423568.2569237,1758423568.324154
172,-82.03125,76.66015625,-36.62109375,-82.03125,1758423568.260669,1758423568.3280602
173,-80.078125,73.2421875,-66.89453125,-71.77734375,1758423568.2644143,1758423568.3319664
174,-79.1015625,132.8125,46.38671875,-77.63671875,1758423568.2681594,1758423568.3358727
175,-71.77734375,139.6484375,84.9609375,-87.890625,1758423568.2719047,1758423568.339779
176,-68.359375,14.6484375,-104.98046875,-88.8671875,1758423568.27565,1758423568.3436852
177,-68.359375,55.6640625,-85.44921875,-79.58984375,1758423568.2793953,1758423568.3475914
178,-75.1953125,175.29296875,132.32421875,-72.265625,1758423568.2831407,1758423568.3514977
179,-80.078125,62.98828125,11.71875,-74.70703125,1758423568.286886,1758423568.355404
180,-79.58984375,46.38671875,-98.6328125,-80.078125,1758423568.290643,1758423568.3593102
181,-80.56640625,111.328125,-12.20703125,-76.171875,1758423568.2944002,1758423568.3632164
182,-70.3125,88.8671875,22.4609375,-71.77734375,1758423568.2981572,1758423568.3671227
183,-65.91796875,40.0390625,-62.5,-75.1953125,1758423568.3019145,1758423568.371029
184,-72.75390625,37.59765625,-91.30859375,-71.2890625,1758423568.3056715,1758423568.3749352
185,-71.77734375,56.640625,-83.49609375,-65.91796875,1758423568.3094287,1758423568.3788414
186,-64.453125,86.9140625,-1.46484375,-70.3125,1758423568.3131857,1758423568.3827477
187,-71.2890625,38.0859375,-23.4375,-76.66015625,1758423568.3169427,1758423568.386654
188,-73.2421875,-20.01953125,-181.15234375,-76.171875,1758423568.3207,1758423568.3905602
189,-70.80078125,86.9140625,-49.8046875,-69.3359375,1758423568.324457,1758423568.3944664
190,-71.77734375,59.5703125,25.390625,-63.96484375,1758423568.3282142,1758423568.3983727
191,-68.84765625,-26.3671875,-110.3515625,-60.05859375,1758423568.3319712,1758423568.402279
192,-61.03515625,-10.7421875,-112.3046875,-64.453125,1758423568.3368237,1758423568.4061852
193,-60.546875,20.5078125,-40.52734375,-63.4765625,1758423568.3416762,1758423568.4100914
194,-61.5234375,-12.6953125,-71.2890625,-56.15234375,1758423568.3465285,1758423568.4139977
195,-67.87109375,-75.68359375,-162.109375,-58.59375,1758423568.351381,1758423568.417904
196,-64.453125,-57.12890625,-105.46875,-51.26953125,1758423568.3562336,1758423568.4218102
197,-60.05859375,-24.90234375,-36.62109375,-50.29296875,1758423568.3610861,1758423568.4257164
198,-65.91796875,-12.20703125,-1.953125,-53.22265625,1758423568.3659387,1758423568.4296227
199,-64.453125,-111.81640625,-104.00390625,-46.875,1758423568.3707912,1758423568.433529
200,-57.6171875,-84.47265625,-104.4921875,-48.828125,1758423568.3756437,1758423568.4374352
201,-55.6640625,29.78515625,106.93359375,-62.98828125,1758423568.380496,1758423568.4413414
202,-56.640625,-74.70703125,21.484375,-68.84765625,1758423568.3853486,1758423568.4452477
203,-59.08203125,-88.37890625,-47.36328125,-64.94140625,1758423568.390201,1758423568.449154
204,-66.89453125,-45.41015625,15.13671875,-61.03515625,1758423568.3928485,1758423568.4530602
205,-68.84765625,-60.05859375,64.94140625,-62.5,1758423568.3954957,1758423568.4569664
206,-62.01171875,-111.328125,17.578125,-68.359375,1758423568.398143,1758423568.4608727
207,-67.87109375,-97.65625,15.13671875,-60.546875,1758423568.4007902,1758423568.464779
208,-66.40625,-94.23828125,41.50390625,-54.6875,1758423568.4034376,1758423568.4686852
209,-59.5703125,-138.18359375,19.53125,-66.89453125,1758423568.406085,1758423568.4725914
210,-59.08203125,-142.578125,24.90234375,-67.87109375,1758423568.4087322,1758423568.4764977
211,-49.8046875,-94.23828125,59.08203125,-56.15234375,1758423568.4113796,1758423568.480404
212,-54.19921875,-51.7578125,145.01953125,-58.10546875,1758423568.4140267,1758423568.4843102
213,-60.546875,-112.3046875,137.20703125,-60.546875,1758423568.4166741,1758423568.4882164
214,-57.12890625,-185.05859375,40.0390625,-61.03515625,1758423568.4193213,1758423568.4921227
215,-63.96484375,-182.12890625,-28.80859375,-56.640625,1758423568.4219687,1758423568.496029
216,-63.4765625,-75.1953125,131.34765625,-55.6640625,1758423568.425702,1758423568.4999352
217,-60.546875,-136.71875,157.2265625,-62.5,1758423568.4294355,1758423568.5038414
218,-65.4296875,-215.8203125,-0.9765625,-59.08203125,1758423568.433169,1758423568.5077477
219,-67.87109375,-177.24609375,41.9921875,-61.5234375,1758423568.4369023,1758423568.511654
220,-67.87109375,-170.8984375,91.796875,-67.3828125,1758423568.4406357,1758423568.5155602
221,-68.84765625,-188.4765625,31.25,-70.80078125,1758423568.4443688,1758423568.5194664
222,-64.94140625,-220.21484375,-23.92578125,-67.3828125,1758423568.4481022,1758423568.5233727
223,-59.08203125,-199.21875,2.44140625,-55.6640625,1758423568.4518356,1758423568.527279
224,-59.5703125,-76.171875,191.40625,-58.59375,1758423568.455569,1758423568.5311852
225,-63.96484375,-118.1640625,174.8046875,-65.91796875,1758423568.4593024,1758423568.5350914
226,-75.1953125,-209.9609375,-2.9296875,-62.98828125,1758423568.4630358,1758423568.5389977
227,-78.61328125,-144.53125,36.1328125,-63.96484375,1758423568.4667692,1758423568.542904
228,-69.3359375,-92.28515625,155.76171875,-69.82421875,1758423568.4705312,1758423568.5468102
229,-69.3359375,-147.94921875,93.75,-67.87109375,1758423568.474293,1758423568.5507164
230,-77.1484375,-125.0,56.640625,-65.91796875,1758423568.478055,1758423568.5546227
231,-66.40625,-69.82421875,115.234375,-59.5703125,1758423568.4818168,1758423568.558529
232,-60.05859375,-108.3984375,110.83984375,-56.640625,1758423568.4855788,1758423568.5624352
233,-74.70703125,-146.97265625,57.12890625,-76.171875,1758423568.4893408,1758423568.5663414
234,-82.03125,-135.25390625,-1.953125,-75.1953125,1758423568.4931026,1758423568.5702477
235,-83.0078125,-32.2265625,136.71875,-69.3359375,1758423568.4968646,1758423568.574154
236,-78.61328125,-20.99609375,249.0234375,-80.078125,1758423568.5006263,1758423568.5780602
237,-72.75390625,-108.88671875,100.5859375,-79.58984375,1758423568.5043883,1758423568.5819664
238,-70.3125,-87.890625,79.58984375,-79.58984375,1758423568.50815,1758423568.5858727
239,-66.89453125,-31.25,174.31640625,-78.125,1758423568.511912,1758423568.589779
240,-65.91796875,-34.1796875,190.91796875,-71.2890625,1758423568.5168488,1758423568.5936852
241,-66.40625,-94.7265625,82.03125,-72.75390625,1758423568.5217857,1758423568.5975914
242,-80.078125,-83.0078125,77.63671875,-82.03125,1758423568.5267224,1758423568.6014977
243,-89.84375,6.34765625,221.6796875,-87.890625,1758423568.5316591,1758423568.605404
244,-77.63671875,-38.57421875,155.76171875,-86.9140625,1758423568.536596,1758423568.6093102
245,-76.171875,-126.46484375,6.8359375,-81.54296875,1758423568.5415328,1758423568.6132164
246,-82.03125,-63.96484375,57.6171875,-74.21875,1758423568.5464694,1758423568.6171227
247,-75.68359375,51.7578125,256.34765625,-86.42578125,1758423568.5514064,1758423568.621029
248,-77.1484375,-35.64453125,173.828125,-87.890625,1758423568.556343,1758423568.6249352
249,-71.2890625,-68.84765625,46.875,-67.3828125,1758423568.5612798,1758423568.6288414
250,-61.03515625,-17.08984375,94.7265625,-66.89453125,1758423568.5662167,1758423568.6327477
251,-66.89453125,-6.8359375,131.8359375,-80.078125,1758423568.5711534,1758423568.636654
252,-72.75390625,-53.7109375,47.36328125,-80.56640625,1758423568.5748615,1758423568.6405602
253,-67.87109375,-51.26953125,-19.53125,-73.2421875,1758423568.57857,1758423568.6444664
254,-76.171875,36.62109375,102.5390625,-82.03125,1758423568.582278,1758423568.6483727
255,-80.078125,14.16015625,143.5546875,-90.33203125,1758423568.5859861,1758423568.652279
256,-73.2421875,-35.64453125,37.59765625,-88.8671875,1758423568.5896945,1758423568.6561852
257,-68.84765625,-12.6953125,14.16015625,-80.56640625,1758423568.5934026,1758423568.6600914
258,-65.91796875,48.33984375,109.375,-80.56640625,1758423568.5971107,1758423568.6639977
259,-75.1953125,49.8046875,147.94921875,-87.890625,1758423568.600819,1758423568.667904
260,-73.73046875,-22.94921875,56.640625,-83.49609375,1758423568.6045272,1758423568.6718102
261,-72.265625,7.32421875,23.4375,-77.1484375,1758423568.6082354,1758423568.6757164
262,-74.21875,84.47265625,152.34375,-72.265625,1758423568.6119437,1758423568.6796227
263,-69.82421875,37.109375,186.5234375,-71.77734375,1758423568.6156518,1758423568.683529
264,-66.89453125,13.18359375,153.3203125,-72.75390625,1758423568.6194787,1758423568.6874352
265,-70.3125,22.94921875,182.12890625,-80.078125,1758423568.6233058,1758423568.6913414
266,-72.265625,29.78515625,219.7265625,-84.47265625,1758423568.627133,1758423568.6952477
267,-68.359375,22.94921875,211.9140625,-70.80078125,1758423568.6309597,1758423568.699154
268,-70.80078125,-16.11328125,183.59375,-72.265625,1758423568.6347866,1758423568.7030602
269,-69.82421875,-5.37109375,182.12890625,-78.61328125,1758423568.6386137,1758423568.7069664
270,-65.91796875,117.67578125,356.4453125,-69.82421875,1758423568.6424408,1758423568.7108727
271,-76.171875,76.66015625,375.0,-73.73046875,1758423568.6462677,1758423568.714779
272,-86.42578125,-32.71484375,179.19921875,-83.984375,1758423568.6500945,1758423568.7186852
273,-80.56640625,18.06640625,182.12890625,-93.75,1758423568.6539216,1758423568.7225914
274,-75.68359375,104.4921875,326.66015625,-88.8671875,1758423568.6577487,1758423568.7264977
275,-74.21875,27.34375,229.98046875,-78.125,1758423568.6615756,1758423568.730404
276,-83.49609375,4.8828125,133.30078125,-78.125,1758423568.6653194,1758423568.7343102
277,-88.37890625,55.6640625,157.71484375,-69.82421875,1758423568.6690636,1758423568.7382164
278,-83.0078125,43.9453125,157.2265625,-65.91796875,1758423568.6728075,1758423568.7421227
279,-81.54296875,1.953125,75.1953125,-68.84765625,1758423568.6765513,1758423568.746029
280,-79.58984375,3.90625,24.4140625,-73.73046875,1758423568.6802955,1758423568.7499352
281,-79.58984375,25.390625,37.109375,-83.0078125,1758423568.6840394,1758423568.7538414
282,-80.078125,23.92578125,18.06640625,-87.890625,1758423568.6877832,1758423568.7577477
283,-75.68359375,42.96875,27.34375,-83.49609375,1758423568.6915274,1758423568.761654
284,-69.3359375,-28.80859375,-106.4453125,-78.125,1758423568.6952713,1758423568.7655602
285,-65.4296875,30.76171875,-72.75390625,-76.171875,1758423568.6990151,1758423568.7694664
286,-62.5,108.88671875,88.8671875,-81.0546875,1758423568.7027593,1758423568.7733727
287,-63.96484375,15.13671875,-62.98828125,-84.9609375,1758423568.7065032,1758423568.777279
288,-70.3125,27.83203125,-105.46875,-74.70703125,1758423568.7102828,1758423568.7811852
289,-69.3359375,59.08203125,-84.47265625,-69.82421875,1758423568.7140622,1758423568.7850914
290,-64.94140625,45.8984375,-129.39453125,-75.1953125,1758423568.7178419,1758423568.7889977
291,-64.94140625,16.6015625,-178.22265625,-74.21875,1758423568.7216215,1758423568.792904
292,-62.5,14.16015625,-171.875,-70.3125,1758423568.725401,1758423568.7968102
293,-52.734375,19.53125,-187.01171875,-75.1953125,1758423568.7291806,1758423568.8007164
294,-48.33984375,73.2421875,-142.08984375,-85.9375,1758423568.7329602,1758423568.8046227
295,-59.5703125,-25.87890625,-239.74609375,-83.0078125,1758423568.7367396,1758423568.808529
296,-61.03515625,-23.92578125,-332.51953125,-67.87109375,1758423568.7405193,1758423568.8124352
297,-60.546875,153.3203125,-86.9140625,-67.87109375,1758423568.744299,1758423568.8163414
298,-68.84765625,37.59765625,-148.92578125,-71.77734375,1758423568.7480783,1758423568.8202477
299,-68.359375,0.9765625,-302.24609375,-56.640625,1758423568.751858,1758423568.824154
300,-77.63671875,56.15234375,-259.765625,-51.7578125,1758423568.7556102,1758423568.8280602
301,-84.9609375,38.57421875,-238.76953125,-65.4296875,1758423568.7593625,1758423568.8319664
302,-86.9140625,0.48828125,-316.89453125,-68.84765625,1758423568.7631145,1758423568.8358727
303,-92.28515625,41.015625,-317.87109375,-68.359375,1758423568.7668667,1758423568.839779
304,-89.35546875,50.78125,-298.33984375,-72.265625,1758423568.770619,1758423568.8436852
305,-76.171875,8.30078125,-366.69921875,-66.89453125,1758423568.7743711,1758423568.8475914
306,-74.70703125,34.1796875,-335.44921875,-68.359375,1758423568.7781234,1758423568.8514977
307,-77.1484375,26.85546875,-375.0,-69.3359375,1758423568.7818756,1758423568.855404
308,-75.68359375,93.75,-277.34375,-68.84765625,1758423568.7856278,1758423568.8593102
309,-78.61328125,91.796875,-198.73046875,-69.82421875,1758423568.7893798,1758423568.8632164
310,-73.73046875,11.71875,-352.05078125,-65.91796875,1758423568.793132,1758423568.8671227
311,-63.4765625,56.640625,-318.359375,-63.4765625,1758423568.7968843,1758423568.871029
312,-64.94140625,111.328125,-191.89453125,-67.87109375,1758423568.8007653,1758423568.8749352
313,-73.73046875,69.3359375,-216.30859375,-63.4765625,1758423568.8046465,1758423568.8788414
314,-73.73046875,22.4609375,-304.6875,-56.15234375,1758423568.8085275,1758423568.8827477
315,-66.89453125,49.8046875,-283.69140625,-62.01171875,1758423568.8124087,1758423568.886654
316,-55.17578125,64.94140625,-222.65625,-63.4765625,1758423568.8162897,1758423568.8905602
317,-64.453125,52.24609375,-229.98046875,-63.4765625,1758423568.8201709,1758423568.8944664
318,-69.3359375,7.32421875,-277.34375,-60.546875,1758423568.8240519,1758423568.8983727
319,-47.8515625,60.05859375,-213.8671875,-43.9453125,1758423568.8279328,1758423568.902279
320,-39.55078125,180.6640625,-11.71875,-37.59765625,1758423568.831814,1758423568.9061852
321,-39.0625,95.703125,-71.77734375,-36.62109375,1758423568.835695,1758423568.9100914
322,-44.43359375,82.03125,-145.01953125,-36.62109375,1758423568.8395762,1758423568.9139977
323,-48.828125,124.0234375,-89.84375,-41.9921875,1758423568.8434572,1758423568.917904
324,-48.828125,85.9375,-72.265625,-45.41015625,1758423568.847188,1758423568.9218102
325,-53.22265625,62.98828125,-102.05078125,-59.5703125,1758423568.8509188,1758423568.9257164
326,-40.0390625,120.60546875,-70.3125,-57.6171875,1758423568.8546493,1758423568.9296227
327,-41.50390625,168.45703125,46.38671875,-42.96875,1758423568.85838,1758423568.933529
328,-52.24609375,104.98046875,20.5078125,-43.9453125,1758423568.8621109,1758423568.9374352
329,-49.8046875,85.44921875,-25.390625,-61.5234375,1758423568.8658414,1758423568.9413414
330,-47.36328125,58.59375,-88.8671875,-56.15234375,1758423568.8695722,1758423568.9452477
331,-44.921875,125.9765625,25.390625,-48.828125,1758423568.873303,1758423568.949154
332,-39.0625,183.59375,206.0546875,-58.59375,1758423568.8770337,1758423568.9530602
333,-34.1796875,71.77734375,35.64453125,-54.6875,1758423568.8807645,1758423568.9569664
334,-41.015625,81.0546875,39.0625,-54.19921875,1758423568.884495,1758423568.9608727
335,-45.8984375,123.53515625,119.140625,-53.22265625,1758423568.8882258,1758423568.964779
336,-50.29296875,105.46875,84.47265625,-55.6640625,1758423568.8930297,1758423568.9686852
337,-49.8046875,72.265625,25.390625,-59.5703125,1758423568.8978336,1758423568.9725914
338,-49.8046875,74.21875,44.921875,-57.6171875,1758423568.9026375,1758423568.9764977
339,-52.734375,115.72265625,110.83984375,-51.26953125,1758423568.9074414,1758423568.980404
340,-54.6875,127.9296875,115.72265625,-48.33984375,1758423568.9122453,1758423568.9843102
341,-59.08203125,23.92578125,18.06640625,-45.8984375,1758423568.917049,1758423568.9882164
342,-61.5234375,50.29296875,-26.3671875,-32.71484375,1758423568.9218528,1758423568.9921227
343,-61.03515625,215.33203125,220.703125,-36.62109375,1758423568.9266567,1758423568.996029
344,-46.875,128.41796875,212.890625,-45.8984375,1758423568.9314606,1758423568.9999352
345,-41.50390625,75.1953125,76.66015625,-51.7578125,1758423568.9362645,1758423569.0038414
346,-43.45703125,131.8359375,148.92578125,-56.15234375,1758423568.9410684,1758423569.0077477
347,-37.109375,111.328125,166.015625,-45.8984375,1758423568.9458723,1758423569.011654
348,-33.203125,76.171875,101.5625,-35.64453125,1758423568.9496777,1758423569.0155602
349,-33.203125,94.7265625,98.14453125,-29.78515625,1758423568.9534829,1758423569.0194664
350,-34.66796875,129.39453125,153.80859375,-31.73828125,1758423568.9572883,1758423569.0233727
351,-41.50390625,114.74609375,162.59765625,-36.1328125,1758423568.9610934,1758423569.027279
352,-54.19921875,73.2421875,104.4921875,-39.0625,1758423568.9648988,1758423569.0311852
353,-54.6875,71.77734375,64.94140625,-42.96875,1758423568.9687042,1758423569.0350914
354,-45.8984375,105.46875,103.02734375,-38.57421875,1758423568.9725094,1758423569.0389977
355,-50.29296875,122.55859375,167.96875,-34.66796875,1758423568.9763148,1758423569.042904
356,-46.38671875,94.7265625,156.73828125,-40.0390625,1758423568.98012,1758423569.0468102
357,-47.8515625,10.25390625,-40.52734375,-36.62109375,1758423568.9839253,1758423569.0507164
358,-50.29296875,114.74609375,79.58984375,-37.109375,1758423568.9877305,1758423569.0546227
359,-39.0625,143.06640625,225.09765625,-39.55078125,1758423568.991536,1758423569.058529
360,-47.36328125,41.9921875,51.7578125,-41.50390625,1758423568.9953246,1758423569.0624352
361,-59.5703125,51.7578125,34.1796875,-50.78125,1758423568.9991136,1758423569.0663414
362,-43.45703125,96.19140625,119.62890625,-42.96875,1758423569.0029023,1758423569.0702477
363,-43.45703125,80.56640625,90.8203125,-39.0625,1758423569.006691,1758423569.074154
364,-57.12890625,28.3203125,16.11328125,-40.0390625,1758423569.0104797,1758423569.0780602
365,-50.29296875,13.18359375,-17.578125,-41.9921875,1758423569.0142684,1758423569.0819664
366,-48.33984375,65.4296875,78.61328125,-43.45703125,1758423569.0180573,1758423569.0858727
367,-52.24609375,55.17578125,113.28125,-47.8515625,1758423569.021846,1758423569.089779
368,-45.8984375,-74.21875,-58.10546875,-48.33984375,1758423569.0256348,1758423569.0936852
369,-49.8046875,-13.671875,-52.734375,-43.45703125,1758423569.0294237,1758423569.0975914
370,-65.4296875,107.421875,173.33984375,-58.10546875,1758423569.0332124,1758423569.1014977
371,-66.40625,-18.06640625,100.5859375,-64.94140625,1758423569.0370011,1758423569.105404
372,-57.12890625,-27.83203125,26.85546875,-60.05859375,1758423569.0407445,1758423569.1093102
373,-55.17578125,14.16015625,88.37890625,-62.98828125,1758423569.044488,1758423569.1132164
374,-62.5,-14.6484375,80.56640625,-70.3125,1758423569.0482314,1758423569.1171227
375,-70.80078125,-43.9453125,18.06640625,-70.80078125,1758423569.0519748,1758423569.121029
376,-64.453125,-43.45703125,2.44140625,-59.5703125,1758423569.0557182,1758423569.1249352
377,-63.4765625,-38.0859375,18.06640625,-57.12890625,1758423569.0594616,1758423569.1288414
378,-68.359375,5.37109375,95.21484375,-59.5703125,1758423569.0632052,1758423569.1327477
379,-60.546875,-35.15625,75.1953125,-53.22265625,1758423569.0669487,1758423569.136654
380,-55.6640625,-77.1484375,-66.40625,-38.57421875,1758423569.070692,1758423569.1405602
381,-57.6171875,44.43359375,107.421875,-46.38671875,1758423569.0744355,1758423569.1444664
382,-56.15234375,8.30078125,158.203125,-63.96484375,1758423569.078179,1758423569.1483727
383,-55.17578125,-61.03515625,21.97265625,-65.4296875,1758423569.0819223,1758423569.152279
384,-59.5703125,-5.859375,86.42578125,-59.08203125,1758423569.0856738,1758423569.1561852
385,-56.15234375,34.66796875,168.45703125,-56.15234375,1758423569.0894253,1758423569.1600914
386,-55.6640625,-9.27734375,129.8828125,-51.26953125,1758423569.0931768,1758423569.1639977
387,-67.3828125,-50.78125,38.57421875,-50.29296875,1758423569.0969284,1758423569.167904
388,-56.15234375,-39.55078125,57.6171875,-45.41015625,1758423569.1006799,1758423569.1718102
389,-38.57421875,-19.53125,94.7265625,-27.83203125,1758423569.1044316,1758423569.1757164
390,-63.96484375,8.30078125,100.5859375,-52.734375,1758423569.1081831,1758423569.1796227
391,-76.171875,-59.08203125,22.94921875,-73.73046875,1758423569.1119347,1758423569.183529
392,-61.03515625,-29.78515625,40.0390625,-62.5,1758423569.1156862,1758423569.1874352
393,-73.2421875,87.890625,229.98046875,-73.73046875,1758423569.1194377,1758423569.1913414
394,-79.58984375,3.90625,135.25390625,-80.56640625,1758423569.1231892,1758423569.1952477
395,-78.125,-3.41796875,59.08203125,-71.77734375,1758423569.1269407,1758423569.199154
396,-84.47265625,23.92578125,82.51953125,-75.68359375,1758423569.1308053,1758423569.2030602
397,-81.54296875,48.33984375,120.60546875,-84.47265625,1758423569.1346698,1758423569.2069664
398,-80.56640625,48.33984375,139.16015625,-80.56640625,1758423569.1385345,1758423569.2108727
399,-77.1484375,26.85546875,62.5,-73.73046875,1758423569.142399,1758423569.214779
400,-73.73046875,69.82421875,87.40234375,-79.58984375,1758423569.1462636,1758423569.2186852
401,-66.89453125,31.73828125,73.73046875,-78.61328125,1758423569.1501281,1758423569.2225914
402,-61.03515625,45.8984375,77.1484375,-67.3828125,1758423569.1539927,1758423569.2264977
403,-60.05859375,37.109375,19.04296875,-60.05859375,1758423569.1578572,1758423569.230404
404,-57.6171875,99.609375,102.05078125,-59.08203125,1758423569.1617217,1758423569.2343102
405,-55.6640625,96.6796875,166.9921875,-52.734375,1758423569.1655865,1758423569.2382164
406,-46.38671875,21.97265625,32.71484375,-45.41015625,1758423569.169451,1758423569.2421227
407,-43.45703125,43.9453125,59.08203125,-47.8515625,1758423569.1733155,1758423569.246029
408,-44.43359375,77.63671875,109.375,-43.9453125,1758423569.178169,1758423569.2499352
409,-47.8515625,78.125,105.46875,-47.8515625,1758423569.1830225,1758423569.2538414
410,-54.19921875,29.296875,36.1328125,-53.22265625,1758423569.187876,1758423569.2577477
411,-54.19921875,50.29296875,19.04296875,-51.26953125,1758423569.1927295,1758423569.261654
412,-51.7578125,99.609375,110.83984375,-48.33984375,1758423569.197583,1758423569.2655602
413,-55.17578125,74.70703125,89.84375,-46.875,1758423569.2024364,1758423569.2694664
414,-58.59375,12.20703125,-0.9765625,-49.31640625,1758423569.2072902,1758423569.2733727
415,-54.6875,26.85546875,-48.33984375,-39.0625,1758423569.2121437,1758423569.277279
416,-55.6640625,188.96484375,195.3125,-37.109375,1758423569.2169971,1758423569.2811852
417,-53.22265625,90.33203125,182.6171875,-48.33984375,1758423569.2218506,1758423569.2850914
418,-51.7578125,33.69140625,14.16015625,-57.6171875,1758423569.2267041,1758423569.2889977
419,-61.03515625,86.42578125,69.82421875,-56.15234375,1758423569.2315576,1758423569.292904
420,-58.10546875,64.94140625,67.3828125,-42.96875,1758423569.2340994,1758423569.2968102
421,-37.59765625,26.85546875,34.66796875,-35.64453125,1758423569.236641,1758423569.3007164
422,-32.2265625,38.57421875,63.96484375,-36.62109375,1758423569.2391827,1758423569.3046227
423,-43.9453125,74.21875,108.3984375,-43.9453125,1758423569.2417245,1758423569.308529
424,-43.45703125,23.92578125,82.51953125,-43.45703125,1758423569.244266,1758423569.3124352
425,-38.0859375,-9.27734375,24.4140625,-40.0390625,1758423569.2468078,1758423569.3163414
426,-41.50390625,26.85546875,51.7578125,-43.45703125,1758423569.2493496,1758423569.3202477
427,-41.9921875,44.921875,110.3515625,-43.45703125,1758423569.2518911,1758423569.324154
428,-36.62109375,9.27734375,152.34375,-48.828125,1758423569.254433,1758423569.3280602
429,-41.50390625,-63.4765625,104.00390625,-52.24609375,1758423569.2569747,1758423569.3319664
430,-39.0625,-162.109375,-56.640625,-36.62109375,1758423569.2595162,1758423569.3358727
431,-22.94921875,-86.42578125,89.35546875,-19.04296875,1758423569.262058,1758423569.339779
432,-29.296875,-49.8046875,276.85546875,-32.71484375,1758423569.266994,1758423569.3436852
433,-35.64453125,-179.19921875,105.46875,-37.59765625,1758423569.27193,1758423569.3475914
434,-35.15625,-190.91796875,78.125,-29.296875,1758423569.276866,1758423569.3514977
435,-42.48046875,-168.9453125,175.78125,-34.1796875,1758423569.281802,1758423569.355404
436,-49.31640625,-221.19140625,150.390625,-41.9921875,1758423569.286738,1758423569.3593102
437,-48.828125,-322.75390625,11.71875,-30.2734375,1758423569.2916737,1758423569.3632164
438,-42.96875,-259.27734375,72.75390625,-27.83203125,1758423569.2966096,1758423569.3671227
439,-51.26953125,-191.89453125,251.46484375,-41.015625,1758423569.3015456,1758423569.371029
440,-42.96875,-301.7578125,152.34375,-38.57421875,1758423569.3064816,1758423569.3749352
441,-24.90234375,-347.65625,43.45703125,-22.94921875,1758423569.3114176,1758423569.3788414
442,-26.3671875,-308.59375,123.046875,-20.01953125,1758423569.3163536,1758423569.3827477
443,-28.80859375,-272.94921875,216.796875,-31.73828125,1758423569.3212895,1758423569.386654
444,-35.15625,-335.9375,122.55859375,-38.0859375,1758423569.3250773,1758423569.3905602
445,-42.48046875,-313.4765625,122.55859375,-36.1328125,1758423569.328865,1758423569.3944664
446,-46.38671875,-279.296875,183.59375,-40.0390625,1758423569.3326528,1758423569.3983727
447,-56.15234375,-317.3828125,155.2734375,-44.43359375,1758423569.3364406,1758423569.402279
448,-52.734375,-348.6328125,97.16796875,-42.96875,1758423569.3402283,1758423569.4061852
449,-43.45703125,-333.49609375,68.359375,-44.921875,1758423569.344016,1758423569.4100914
450,-45.41015625,-269.04296875,161.1328125,-42.96875,1758423569.347804,1758423569.4139977
451,-43.45703125,-266.6015625,205.078125,-39.55078125,1758423569.3515918,1758423569.417904
452,-52.24609375,-333.49609375,83.0078125,-44.43359375,1758423569.3553796,1758423569.4218102
453,-65.91796875,-298.33984375,43.45703125,-49.8046875,1758423569.3591673,1758423569.4257164
454,-57.12890625,-221.6796875,141.6015625,-44.43359375,1758423569.362955,1758423569.4296227
455,-44.921875,-246.09375,162.109375,-47.36328125,1758423569.3667428,1758423569.433529
456,-46.875,-125.48828125,2.9296875,-44.43359375,1758423569.3775249,1758423569.4374352
457,-49.8046875,-53.7109375,68.359375,-58.10546875,1758423569.3883066,1758423569.4413414
458,-53.22265625,-20.99609375,151.85546875,-68.84765625,1758423569.3990886,1758423569.4452477
459,-56.640625,-75.1953125,77.1484375,-67.3828125,1758423569.4098706,1758423569.449154
460,-49.8046875,-94.23828125,-8.30078125,-54.6875,1758423569.4206524,1758423569.4530602
461,-53.7109375,-35.64453125,50.29296875,-62.98828125,1758423569.4314344,1758423569.4569664
462,-65.91796875,-3.90625,146.484375,-67.3828125,1758423569.4422164,1758423569.4608727
463,-61.5234375,-49.31640625,119.140625,-61.03515625,1758423569.4529982,1758423569.464779
464,-63.4765625,-90.33203125,-0.9765625,-57.6171875,1758423569.4637802,1758423569.4686852
465,-66.89453125,7.8125,139.6484375,-58.10546875,1758423569.4745622,1758423569.4725914
466,-51.26953125,-20.01953125,206.0546875,-66.89453125,1758423569.485344,1758423569.4764977
467,-39.55078125,-94.23828125,82.51953125,-75.1953125,1758423569.496126,1758423569.480404
468,-53.7109375,-65.4296875,117.1875,-70.80078125,1758423569.4965825,1758423569.4843102
469,-58.10546875,-48.33984375,167.48046875,-62.98828125,1758423569.497039,1758423569.4882164
470,-58.59375,-62.5,167.96875,-61.03515625,1758423569.4974957,1758423569.4921227
471,-58.59375,-123.53515625,91.796875,-59.5703125,1758423569.4979522,1758423569.496029
472,-57.12890625,-140.13671875,90.33203125,-58.10546875,1758423569.4984088,1758423569.4999352
473,-53.7109375,-98.14453125,154.296875,-52.24609375,1758423569.4988654,1758423569.5038414
474,-59.08203125,-56.640625,208.49609375,-50.29296875,1758423569.499322,1758423569.5077477
475,-57.12890625,-156.73828125,99.609375,-54.19921875,1758423569.4997785,1758423569.511654
476,-52.24609375,-125.9765625,77.1484375,-57.6171875,1758423569.500235,1758423569.5155602
477,-61.03515625,0.9765625,312.5,-64.94140625,1758423569.5006917,1758423569.5194664
478,-61.03515625,-123.53515625,229.00390625,-54.19921875,1758423569.5011482,1758423569.5233727
479,-53.7109375,-142.578125,133.7890625,-43.9453125,1758423569.5016048,1758423569.527279
480,-53.7109375,-82.03125,208.0078125,-41.015625,1758423569.5077112,1758423569.5311852
481,-52.24609375,-96.6796875,242.67578125,-49.8046875,1758423569.5138178,1758423569.5350914
482,-50.29296875,-143.5546875,177.24609375,-60.05859375,1758423569.5199242,1758423569.5389977
483,-54.19921875,-105.95703125,204.1015625,-50.29296875,1758423569.5260308,1758423569.542904
484,-59.08203125,-97.16796875,246.58203125,-49.8046875,1758423569.5321372,1758423569.5468102
485,-56.640625,-151.3671875,186.03515625,-53.7109375,1758423569.5382438,1758423569.5507164
486,-54.6875,-116.2109375,219.7265625,-53.22265625,1758423569.5443501,1758423569.5546227
487,-58.10546875,-163.57421875,135.25390625,-54.19921875,1758423569.5504565,1758423569.558529
488,-48.828125,-97.65625,236.81640625,-45.41015625,1758423569.5565631,1758423569.5624352
489,-35.64453125,-28.80859375,416.9921875,-42.96875,1758423569.5626695,1758423569.5663414
490,-41.015625,-134.27734375,245.1171875,-36.62109375,1758423569.5687761,1758423569.5702477
491,-42.48046875,-114.74609375,217.7734375,-30.2734375,1758423569.5748825,1758423569.574154
492,-40.0390625,-71.77734375,281.25,-37.109375,1758423569.5762956,1758423569.5780602
493,-35.15625,-83.984375,244.140625,-46.38671875,1758423569.5777087,1758423569.5819664
494,-39.0625,-119.140625,151.85546875,-50.78125,1758423569.579122,1758423569.5858727
495,-42.48046875,-83.0078125,175.78125,-47.8515625,1758423569.5805352,1758423569.589779
496,-38.0859375,-62.01171875,213.8671875,-42.96875,1758423569.5819483,1758423569.5936852
497,-37.59765625,-85.44921875,130.859375,-43.45703125,1758423569.5833614,1758423569.5975914
498,-35.64453125,-104.00390625,77.63671875,-44.921875,1758423569.5847745,1758423569.6014977
499,-42.48046875,-76.171875,86.9140625,-39.55078125,1758423569.5861876,1758423569.605404
500,-41.9921875,25.390625,200.1953125,-39.55078125,1758423569.5876007,1758423569.6093102
501,-34.1796875,-2.44140625,197.265625,-40.0390625,1758423569.589014,1758423569.6132164
502,-41.50390625,-60.546875,66.89453125,-39.0625,1758423569.5904272,1758423569.6171227
503,-41.015625,-9.27734375,77.1484375,-38.57421875,1758423569.5918403,1758423569.621029
504,-20.01953125,19.04296875,169.43359375,-37.59765625,1758423569.5955968,1758423569.6249352
505,-16.6015625,-24.90234375,117.1875,-47.8515625,1758423569.599353,1758423569.6288414
506,-23.92578125,-85.9375,-29.78515625,-59.5703125,1758423569.6031096,1758423569.6327477
507,-28.80859375,5.37109375,69.82421875,-63.4765625,1758423569.6068661,1758423569.636654
508,-21.97265625,16.6015625,153.80859375,-51.26953125,1758423569.6106224,1758423569.6405602
509,-15.625,-42.96875,48.828125,-44.921875,1758423569.614379,1758423569.6444664
510,-18.06640625,-38.57421875,5.37109375,-36.1328125,1758423569.6181355,1758423569.6483727
511,-22.4609375,17.578125,100.5859375,-32.2265625,1758423569.6218917,1758423569.652279
512,-28.80859375,34.1796875,187.98828125,-46.875,1758423569.6256483,1758423569.6561852
513,-32.71484375,-43.9453125,49.31640625,-42.48046875,1758423569.6294048,1758423569.6600914
514,-44.921875,-42.48046875,31.25,-32.71484375,1758423569.633161,1758423569.6639977
515,-44.43359375,3.90625,116.69921875,-23.4375,1758423569.6369176,1758423569.667904
516,-36.1328125,14.16015625,141.11328125,-19.04296875,1758423569.6418679,1758423569.6718102
517,-37.109375,-53.22265625,49.8046875,-25.87890625,1758423569.646818,1758423569.6757164
518,-38.0859375,-26.85546875,80.078125,-27.83203125,1758423569.6517682,1758423569.6796227
519,-41.50390625,51.26953125,216.30859375,-21.484375,1758423569.6567185,1758423569.683529
520,-39.0625,4.8828125,179.6875,-20.5078125,1758423569.6616685,1758423569.6874352
521,-37.59765625,-91.796875,51.7578125,-29.296875,1758423569.6666188,1758423569.6913414
522,-32.2265625,-14.16015625,124.51171875,-27.83203125,1758423569.671569,1758423569.6952477
523,-28.3203125,103.515625,346.19140625,-38.57421875,1758423569.6765192,1758423569.699154
524,-30.2734375,-1.46484375,279.78515625,-47.36328125,1758423569.6814694,1758423569.7030602
525,-29.296875,-27.83203125,186.03515625,-38.57421875,1758423569.6864197,1758423569.7069664
526,-28.80859375,12.6953125,249.51171875,-31.25,1758423569.6913698,1758423569.7108727
527,-42.48046875,16.11328125,312.98828125,-27.34375,1758423569.69632,1758423569.714779
528,-49.8046875,-29.78515625,256.8359375,-31.25,1758423569.7000546,1758423569.7186852
529,-35.64453125,-28.3203125,211.42578125,-29.296875,1758423569.7037892,1758423569.7225914
530,-38.0859375,34.66796875,320.80078125,-27.83203125,1758423569.7075238,1758423569.7264977
531,-44.921875,12.6953125,348.14453125,-29.78515625,1758423569.7112584,1758423569.730404
532,-47.36328125,-24.90234375,291.9921875,-41.50390625,1758423569.714993,1758423569.7343102
533,-56.15234375,-67.87109375,165.52734375,-53.7109375,1758423569.7187276,1758423569.7382164
534,-55.17578125,27.34375,277.34375,-50.29296875,1758423569.722462,1758423569.7421227
535,-57.12890625,50.29296875,420.41015625,-53.7109375,1758423569.7261965,1758423569.746029
536,-56.640625,-50.29296875,271.484375,-52.734375,1758423569.729931,1758423569.7499352
537,-54.19921875,-43.45703125,184.08203125,-43.45703125,1758423569.7336657,1758423569.7538414
538,-55.6640625,50.78125,327.1484375,-43.9453125,1758423569.7374003,1758423569.7577477
539,-52.734375,24.4140625,389.16015625,-55.17578125,1758423569.741135,1758423569.761654
540,-55.17578125,-53.7109375,243.65234375,-52.24609375,1758423569.7449214,1758423569.7655602
541,-54.6875,-39.0625,249.51171875,-49.31640625,1758423569.748708,1758423569.7694664
542,-43.9453125,16.11328125,364.74609375,-47.8515625,1758423569.7524946,1758423569.7733727
543,-45.41015625,-10.25390625,322.265625,-49.31640625,1758423569.7562811,1758423569.777279
544,-57.12890625,-62.01171875,267.08984375,-54.6875,1758423569.7600677,1758423569.7811852
545,-61.03515625,-33.203125,287.109375,-43.9453125,1758423569.7638545,1758423569.7850914
546,-60.546875,70.80078125,442.3828125,-47.36328125,1758423569.767641,1758423569.7889977
547,-48.828125,29.296875,448.2421875,-50.29296875,1758423569.7714276,1758423569.792904
548,-44.921875,-72.265625,271.484375,-41.015625,1758423569.7752142,1758423569.7968102
549,-57.12890625,-37.109375,291.9921875,-34.66796875,1758423569.7790008,1758423569.8007164
550,-58.10546875,38.57421875,421.875,-33.69140625,1758423569.7827873,1758423569.8046227
551,-42.96875,-20.01953125,334.47265625,-34.1796875,1758423569.786574,1758423569.808529
552,-43.9453125,-16.6015625,281.25,-40.52734375,1758423569.7903562,1758423569.8124352
553,-43.9453125,28.3203125,336.9140625,-39.0625,1758423569.7941384,1758423569.8163414
554,-34.1796875,7.8125,329.58984375,-30.76171875,1758423569.7979207,1758423569.8202477
555,-42.96875,-16.6015625,272.4609375,-36.62109375,1758423569.801703,1758423569.824154
556,-53.7109375,-16.6015625,243.1640625,-53.7109375,1758423569.8054852,1758423569.8280602
557,-40.0390625,15.625,268.5546875,-51.7578125,1758423569.8092675,1758423569.8319664
558,-48.33984375,24.4140625,289.0625,-39.55078125,1758423569.8130498,1758423569.8358727
559,-50.29296875,17.08984375,286.62109375,-28.3203125,1758423569.816832,1758423569.839779
560,-32.71484375,-28.3203125,152.83203125,-23.4375,1758423569.8206143,1758423569.8436852
561,-30.2734375,51.26953125,244.62890625,-16.11328125,1758423569.8243966,1758423569.8475914
562,-31.25,114.2578125,444.82421875,-15.625,1758423569.828179,1758423569.8514977
563,-28.80859375,19.53125,251.953125,-22.4609375,1758423569.8319612,1758423569.855404
564,-20.01953125,36.62109375,187.01171875,-13.18359375,1758423569.8368225,1758423569.8593102
565,-15.13671875,83.984375,250.0,-10.25390625,1758423569.841684,1758423569.8632164
566,-17.578125,64.453125,199.21875,-16.6015625,1758423569.8465455,1758423569.8671227
567,-20.5078125,31.73828125,83.984375,-22.4609375,1758423569.8514068,1758423569.871029
568,-25.87890625,41.9921875,47.36328125,-36.1328125,1758423569.8562684,1758423569.8749352
569,-25.87890625,67.3828125,33.69140625,-37.59765625,1758423569.8611298,1758423569.8788414
570,-13.671875,116.2109375,58.59375,-29.78515625,1758423569.865991,1758423569.8827477
571,-15.625,28.80859375,-92.7734375,-24.4140625,1758423569.8708527,1758423569.886654
572,-21.97265625,57.6171875,-179.19921875,-20.99609375,1758423569.875714,1758423569.8905602
573,-28.80859375,201.171875,20.01953125,-28.80859375,1758423569.8805754,1758423569.8944664
574,-35.64453125,95.703125,-99.12109375,-22.94921875,1758423569.885437,1758423569.8983727
575,-27.83203125,17.578125,-344.23828125,-13.18359375,1758423569.8902984,1758423569.902279
576,-25.87890625,108.88671875,-297.36328125,-22.4609375,1758423569.8929334,1758423569.9061852
577,-38.0859375,149.90234375,-173.828125,-35.64453125,1758423569.8955681,1758423569.9100914
578,-37.59765625,83.0078125,-291.015625,-33.203125,1758423569.8982031,1758423569.9139977
579,-32.2265625,108.88671875,-349.609375,-32.2265625,1758423569.900838,1758423569.917904
580,-39.55078125,108.88671875,-339.84375,-34.1796875,1758423569.903473,1758423569.9218102
581,-40.0390625,83.984375,-383.7890625,-35.15625,1758423569.906108,1758423569.9257164
582,-22.4609375,104.98046875,-356.93359375,-33.69140625,1758423569.9087427,1758423569.9296227
583,-24.4140625,120.1171875,-355.46875,-28.3203125,1758423569.9113777,1758423569.933529
584,-35.15625,166.9921875,-273.4375,-27.34375,1758423569.9140124,1758423569.9374352
585,-38.57421875,125.9765625,-257.32421875,-23.4375,1758423569.9166474,1758423569.9413414
586,-49.8046875,48.33984375,-378.41796875,-29.296875,1758423569.9192822,1758423569.9452477
587,-54.19921875,59.5703125,-445.80078125,-32.2265625,1758423569.9219172,1758423569.949154
588,-54.6875,176.7578125,-265.625,-37.109375,1758423569.9270463,1758423569.9530602
589,-56.15234375,136.71875,-213.8671875,-40.52734375,1758423569.9321754,1758423569.9569664
590,-60.546875,55.6640625,-377.9296875,-38.57421875,1758423569.9373045,1758423569.9608727
591,-52.734375,73.73046875,-352.05078125,-40.0390625,1758423569.9424334,1758423569.964779
592,-46.875,71.2890625,-315.4296875,-39.55078125,1758423569.9475625,1758423569.9686852
593,-49.8046875,42.96875,-376.953125,-40.0390625,1758423569.9526916,1758423569.9725914
594,-49.8046875,18.06640625,-405.76171875,-40.0390625,1758423569.9578207,1758423569.9764977
595,-56.640625,67.3828125,-345.21484375,-32.71484375,1758423569.9629498,1758423569.980404
596,-53.22265625,166.015625,-153.80859375,-31.25,1758423569.9680786,1758423569.9843102
597,-51.7578125,78.61328125,-216.796875,-40.52734375,1758423569.9732077,1758423569.9882164
598,-51.7578125,76.171875,-299.31640625,-49.31640625,1758423569.9783368,1758423569.9921227
599,-41.50390625,147.4609375,-213.8671875,-39.0625,1758423569.983466,1758423569.996029
600,-38.0859375,146.484375,-147.94921875,-33.69140625,1758423569.9859686,1758423569.9999352
601,-33.69140625,106.93359375,-226.07421875,-34.66796875,1758423569.988471,1758423570.0038414
602,-31.25,141.6015625,-248.53515625,-32.71484375,1758423569.9909737,1758423570.0077477
603,-40.0390625,195.3125,-138.18359375,-33.203125,1758423569.9934764,1758423570.011654
604,-41.015625,118.65234375,-181.15234375,-29.78515625,1758423569.9959788,1758423570.0155602
605,-42.48046875,84.9609375,-294.43359375,-30.2734375,1758423569.9984815,1758423570.0194664
606,-51.26953125,171.38671875,-232.421875,-35.64453125,1758423570.0009842,1758423570.0233727
607,-38.57421875,185.546875,-172.8515625,-36.1328125,1758423570.0034866,1758423570.027279
608,-26.3671875,149.4140625,-207.03125,-40.0390625,1758423570.0059893,1758423570.0311852
609,-30.76171875,119.62890625,-272.94921875,-43.9453125,1758423570.008492,1758423570.0350914
610,-35.15625,44.921875,-477.05078125,-38.57421875,1758423570.0109944,1758423570.0389977
611,-34.1796875,156.73828125,-312.01171875,-27.83203125,1758423570.013497,1758423570.042904
612,-33.203125,207.03125,-96.6796875,-31.25,1758423570.0182297,1758423570.0468102
613,-35.15625,93.75,-290.52734375,-37.109375,1758423570.022962,1758423570.0507164
614,-28.80859375,101.07421875,-291.015625,-33.203125,1758423570.0276947,1758423570.0546227
615,-25.390625,115.72265625,-255.859375,-32.71484375,1758423570.0324273,1758423570.058529
616,-32.71484375,114.2578125,-263.18359375,-40.0390625,1758423570.03716,1758423570.0624352
617,-34.1796875,48.828125,-308.59375,-35.15625,1758423570.0418925,1758423570.0663414
618,-32.71484375,44.43359375,-379.8828125,-17.08984375,1758423570.046625,1758423570.0702477
619,-28.80859375,209.9609375,-119.62890625,-21.97265625,1758423570.0513575,1758423570.074154
620,-18.06640625,153.80859375,-51.26953125,-38.0859375,1758423570.05609,1758423570.0780602
621,-24.90234375,41.015625,-274.4140625,-37.59765625,1758423570.0608225,1758423570.0819664
622,-29.296875,97.16796875,-225.5859375,-29.78515625,1758423570.065555,1758423570.0858727
623,-27.34375,133.7890625,-89.84375,-40.0390625,1758423570.0702877,1758423570.089779
624,-27.83203125,72.75390625,-154.296875,-44.43359375,1758423570.0741398,1758423570.0936852
625,-25.390625,73.73046875,-189.453125,-35.15625,1758423570.077992,1758423570.0975914
626,-31.73828125,99.12109375,-151.3671875,-32.71484375,1758423570.0818443,1758423570.1014977
627,-33.203125,84.9609375,-139.6484375,-35.64453125,1758423570.0856965,1758423570.105404
628,-28.3203125,37.59765625,-212.890625,-38.0859375,1758423570.0895486,1758423570.1093102
629,-25.87890625,48.828125,-287.59765625,-36.62109375,1758423570.0934007,1758423570.1132164
630,-19.04296875,103.02734375,-217.28515625,-24.90234375,1758423570.0972528,1758423570.1171227
631,-19.04296875,85.44921875,-182.12890625,-20.01953125,1758423570.101105,1758423570.121029
632,-26.3671875,50.29296875,-212.40234375,-27.83203125,1758423570.104957,1758423570.1249352
633,-34.66796875,-0.9765625,-364.74609375,-32.2265625,1758423570.1088095,1758423570.1288414
634,-32.71484375,84.47265625,-270.01953125,-35.64453125,1758423570.1126616,1758423570.1327477
635,-18.06640625,62.5,-184.5703125,-28.3203125,1758423570.1165137,1758423570.136654
636,-19.04296875,-22.94921875,-378.90625,-23.92578125,1758423570.1203046,1758423570.1405602
637,-27.34375,-0.9765625,-395.99609375,-29.78515625,1758423570.1240954,1758423570.1444664
638,-21.97265625,18.5546875,-347.65625,-30.2734375,1758423570.1278863,1758423570.1483727
639,-20.5078125,-10.25390625,-401.85546875,-33.203125,1758423570.1316774,1758423570.152279
640,-18.5546875,-59.5703125,-486.81640625,-30.2734375,1758423570.1354682,1758423570.1561852
641,-20.01953125,-75.1953125,-563.96484375,-30.76171875,1758423570.139259,1758423570.1600914
642,-31.25,-20.01953125,-472.65625,-38.0859375,1758423570.14305,1758423570.1639977
643,-21.97265625,-29.296875,-451.66015625,-35.15625,1758423570.1468408,1758423570.167904
644,-17.578125,-157.71484375,-664.55078125,-25.390625,1758423570.150632,1758423570.1718102
645,-26.3671875,-115.234375,-726.07421875,-20.01953125,1758423570.1544228,1758423570.1757164
646,-28.3203125,37.59765625,-456.0546875,-27.83203125,1758423570.1582136,1758423570.1796227
647,-28.80859375,-86.42578125,-521.484375,-26.85546875,1758423570.1620045,1758423570.183529
648,-25.87890625,-124.51171875,-704.1015625,-26.85546875,1758423570.1657393,1758423570.1874352
649,-27.83203125,-67.87109375,-649.4140625,-33.69140625,1758423570.1694741,1758423570.1913414
650,-26.85546875,-92.28515625,-635.25390625,-31.25,1758423570.1732087,1758423570.1952477
651,-28.80859375,-123.046875,-711.42578125,-33.203125,1758423570.1769435,1758423570.199154
652,-39.0625,-126.953125,-762.20703125,-29.296875,1758423570.1806784,1758423570.2030602
653,-51.7578125,-121.58203125,-777.83203125,-26.85546875,1758423570.1844132,1758423570.2069664
654,-49.31640625,-71.77734375,-714.35546875,-35.15625,1758423570.188148,1758423570.2108727
655,-15.625,-86.42578125,-690.91796875,-16.11328125,1758423570.1918828,1758423570.214779
656,-12.6953125,-145.5078125,-866.69921875,6.8359375,1758423570.1956177,1758423570.2186852
657,-72.75390625,-29.296875,-714.35546875,-41.50390625,1758423570.1993523,1758423570.2225914
658,-99.609375,-42.48046875,-585.9375,-80.56640625,1758423570.203087,1758423570.2264977
659,-71.77734375,-106.93359375,-731.4453125,-62.01171875,1758423570.206822,1758423570.230404
660,-72.75390625,-28.80859375,-659.66796875,-58.59375,1758423570.2105742,1758423570.2343102
661,-91.30859375,17.578125,-515.625,-63.4765625,1758423570.2143264,1758423570.2382164
662,-86.42578125,-16.6015625,-526.85546875,-58.59375,1758423570.2180786,1758423570.2421227
663,-85.44921875,-40.0390625,-587.890625,-62.98828125,1758423570.221831,1758423570.246029
664,-92.28515625,-34.1796875,-550.29296875,-69.82421875,1758423570.2255833,1758423570.2499352
665,-96.19140625,-11.71875,-486.81640625,-76.66015625,1758423570.2293355,1758423570.2538414
666,-92.28515625,45.41015625,-360.83984375,-75.1953125,1758423570.2330878,1758423570.2577477
667,-95.703125,-29.296875,-424.8046875,-75.1953125,1758423570.23684,1758423570.261654
668,-96.6796875,10.25390625,-415.0390625,-76.66015625,1758423570.2405925,1758423570.2655602
669,-97.16796875,136.71875,-143.06640625,-70.80078125,1758423570.2443447,1758423570.2694664
670,-100.5859375,52.734375,-196.2890625,-72.265625,1758423570.248097,1758423570.2733727
671,-88.8671875,54.6875,-278.3203125,-73.2421875,1758423570.2518492,1758423570.277279
672,-78.125,102.5390625,-192.87109375,-65.4296875,1758423570.2569718,1758423570.2811852
673,-77.63671875,94.23828125,-155.76171875,-68.84765625,1758423570.2620943,1758423570.2850914
674,-84.9609375,74.70703125,-164.0625,-78.61328125,1758423570.2672167,1758423570.2889977
675,-82.51953125,83.984375,-173.828125,-71.2890625,1758423570.2723393,1758423570.292904
676,-73.2421875,128.90625,-107.421875,-57.6171875,1758423570.277462,1758423570.2968102
677,-67.3828125,101.07421875,-83.49609375,-58.59375,1758423570.2825844,1758423570.3007164
678,-74.70703125,106.4453125,-81.54296875,-68.359375,1758423570.2877069,1758423570.3046227
679,-80.078125,72.265625,-163.0859375,-73.2421875,1758423570.2928295,1758423570.308529
680,-72.265625,137.6953125,-42.96875,-76.171875,1758423570.2979522,1758423570.3124352
681,-74.70703125,145.5078125,104.00390625,-76.171875,1758423570.3030746,1758423570.3163414
682,-80.078125,54.19921875,-75.1953125,-63.4765625,1758423570.308197,1758423570.3202477
683,-73.2421875,80.078125,-80.078125,-62.98828125,1758423570.3133197,1758423570.324154
684,-62.01171875,133.30078125,37.109375,-62.5,1758423570.3156848,1758423570.3280602
685,-61.5234375,115.234375,28.3203125,-52.24609375,1758423570.31805,1758423570.3319664
686,-65.4296875,65.4296875,-59.5703125,-50.29296875,1758423570.3204148,1758423570.3358727
687,-61.5234375,57.6171875,-71.2890625,-52.24609375,1758423570.32278,1758423570.339779
688,-65.91796875,86.9140625,-3.90625,-57.6171875,1758423570.325145,1758423570.3436852
689,-69.3359375,86.9140625,0.9765625,-53.22265625,1758423570.3275099,1758423570.3475914
690,-68.84765625,43.9453125,-76.171875,-56.15234375,1758423570.329875,1758423570.3514977
691,-76.171875,58.10546875,-41.50390625,-65.91796875,1758423570.33224,1758423570.355404
692,-80.56640625,96.6796875,51.26953125,-60.05859375,1758423570.3346052,1758423570.3593102
693,-75.68359375,82.03125,37.109375,-58.59375,1758423570.3369703,1758423570.3632164
694,-62.98828125,-36.62109375,-159.66796875,-54.6875,1758423570.3393352,1758423570.3671227
695,-65.91796875,13.18359375,-195.3125,-48.828125,1758423570.3417003,1758423570.371029
696,-66.89453125,173.33984375,118.65234375,-51.26953125,1758423570.3454695,1758423570.3749352
697,-41.50390625,47.36328125,43.45703125,-52.24609375,1758423570.3492384,1758423570.3788414
698,-46.38671875,28.3203125,-83.984375,-52.24609375,1758423570.3530073,1758423570.3827477
699,-60.546875,85.44921875,-2.9296875,-58.10546875,1758423570.3567765,1758423570.386654
700,-60.546875,28.3203125,-32.2265625,-60.05859375,1758423570.3605456,1758423570.3905602
701,-62.01171875,12.20703125,-88.8671875,-62.98828125,1758423570.3643146,1758423570.3944664
702,-58.10546875,-7.8125,-166.015625,-57.12890625,1758423570.3680835,1758423570.3983727
703,-62.98828125,35.64453125,-70.3125,-47.36328125,1758423570.3718526,1758423570.402279
704,-59.5703125,103.515625,154.296875,-54.6875,1758423570.3756218,1758423570.4061852
705,-54.6875,-4.39453125,-27.34375,-60.546875,1758423570.3793907,1758423570.4100914
706,-54.6875,-11.23046875,-93.26171875,-60.546875,1758423570.3831596,1758423570.4139977
707,-50.29296875,22.94921875,-9.765625,-52.24609375,1758423570.3869288,1758423570.417904
708,-51.7578125,-7.8125,-36.62109375,-51.7578125,1758423570.3918679,1758423570.4218102
709,-58.59375,-60.546875,-117.1875,-57.12890625,1758423570.396807,1758423570.4257164
710,-73.2421875,-55.17578125,-117.1875,-59.5703125,1758423570.401746,1758423570.4296227
711,-75.1953125,-11.23046875,-30.76171875,-58.59375,1758423570.406685,1758423570.433529
712,-64.94140625,-34.1796875,-49.31640625,-53.22265625,1758423570.4116242,1758423570.4374352
713,-61.5234375,-116.69921875,-200.1953125,-51.7578125,1758423570.4165635,1758423570.4413414
714,-59.08203125,-37.109375,-139.6484375,-51.7578125,1758423570.4215026,1758423570.4452477
715,-54.6875,70.3125,89.84375,-43.9453125,1758423570.4264417,1758423570.449154
716,-59.08203125,-29.78515625,-15.625,-44.921875,1758423570.4313807,1758423570.4530602
717,-63.96484375,-91.30859375,-171.875,-44.921875,1758423570.4363198,1758423570.4569664
718,-51.26953125,-20.99609375,-70.3125,-29.78515625,1758423570.441259,1758423570.4608727
719,-54.6875,44.43359375,69.82421875,-35.64453125,1758423570.446198,1758423570.464779
720,-64.453125,-6.8359375,-20.01953125,-44.921875,1758423570.449989,1758423570.4686852
721,-60.05859375,2.9296875,-82.03125,-37.109375,1758423570.4537804,1758423570.4725914
722,-43.9453125,48.33984375,-17.08984375,-35.15625,1758423570.4575715,1758423570.4764977
723,-38.57421875,44.43359375,24.90234375,-40.0390625,1758423570.4613626,1758423570.480404
724,-55.17578125,4.39453125,-49.31640625,-39.0625,1758423570.465154,1758423570.4843102
725,-54.6875,20.01953125,-117.1875,-38.0859375,1758423570.468945,1758423570.4882164
726,-48.828125,79.1015625,-39.55078125,-41.015625,1758423570.4727361,1758423570.4921227
727,-49.8046875,77.1484375,17.08984375,-49.8046875,1758423570.4765275,1758423570.496029
728,-49.31640625,27.83203125,-83.984375,-57.6171875,1758423570.4803185,1758423570.4999352
729,-45.41015625,47.8515625,-189.453125,-54.6875,1758423570.4841096,1758423570.5038414
730,-40.0390625,115.72265625,-94.7265625,-46.875,1758423570.487901,1758423570.5077477
731,-38.0859375,84.47265625,-67.87109375,-42.48046875,1758423570.491692,1758423570.511654
732,-37.59765625,59.08203125,-158.69140625,-34.66796875,1758423570.49546,1758423570.5155602
733,-45.8984375,60.546875,-195.3125,-32.71484375,1758423570.4992278,1758423570.5194664
734,-59.08203125,110.3515625,-140.13671875,-34.66796875,1758423570.5029957,1758423570.5233727
735,-57.6171875,81.0546875,-196.77734375,-41.50390625,1758423570.5067635,1758423570.527279
736,-58.59375,40.52734375,-311.03515625,-54.6875,1758423570.5105314,1758423570.5311852
737,-69.3359375,29.78515625,-379.8828125,-44.43359375,1758423570.5142994,1758423570.5350914
738,-69.3359375,87.40234375,-333.49609375,-44.43359375,1758423570.5180671,1758423570.5389977
739,-56.15234375,110.3515625,-274.90234375,-53.22265625,1758423570.521835,1758423570.542904
740,-56.640625,-7.32421875,-468.75,-56.640625,1758423570.5256028,1758423570.5468102
741,-61.5234375,26.3671875,-521.97265625,-52.24609375,1758423570.5293708,1758423570.5507164
742,-56.640625,139.6484375,-329.58984375,-53.22265625,1758423570.5331385,1758423570.5546227
743,-46.38671875,45.41015625,-445.3125,-54.19921875,1758423570.5369065,1758423570.558529
744,-41.015625,10.25390625,-612.3046875,-48.33984375,1758423570.540784,1758423570.5624352
745,-48.33984375,64.94140625,-601.07421875,-51.7578125,1758423570.544661,1758423570.5663414
746,-49.31640625,66.89453125,-539.0625,-45.8984375,1758423570.5485384,1758423570.5702477
747,-39.55078125,15.13671875,-617.67578125,-48.33984375,1758423570.5524156,1758423570.574154
748,-29.296875,-1.953125,-762.6953125,-48.828125,1758423570.556293,1758423570.5780602
749,-33.69140625,44.921875,-741.2109375,-43.9453125,1758423570.5601702,1758423570.5819664
750,-47.8515625,63.4765625,-659.1796875,-52.734375,1758423570.5640476,1758423570.5858727
751,-44.921875,24.4140625,-690.91796875,-48.33984375,1758423570.567925,1758423570.589779
752,-37.59765625,-44.921875,-882.8125,-38.0859375,1758423570.5718021,1758423570.5936852
753,-46.38671875,41.9921875,-788.0859375,-41.50390625,1758423570.5756795,1758423570.5975914
754,-43.9453125,30.2734375,-674.8046875,-40.52734375,1758423570.5795567,1758423570.6014977
755,-42.48046875,-60.05859375,-862.3046875,-42.48046875,1758423570.583434,1758423570.605404
756,-45.8984375,-42.48046875,-883.7890625,-42.96875,1758423570.5882149,1758423570.6093102
757,-48.828125,-17.578125,-808.10546875,-37.59765625,1758423570.592996,1758423570.6132164
758,-48.828125,-25.87890625,-837.890625,-41.9921875,1758423570.5977767,1758423570.6171227
759,-47.8515625,-89.84375,-937.5,-45.41015625,1758423570.6025574,1758423570.621029
760,-59.5703125,-113.28125,-933.59375,-56.15234375,1758423570.6073384,1758423570.6249352
761,-60.546875,-55.6640625,-878.90625,-52.734375,1758423570.6121192,1758423570.6288414
762,-55.17578125,-12.6953125,-833.984375,-47.36328125,1758423570.6169,1758423570.6327477
763,-59.08203125,-109.86328125,-879.8828125,-48.828125,1758423570.621681,1758423570.636654
764,-52.734375,-127.9296875,-986.328125,-38.57421875,1758423570.6264617,1758423570.6405602
765,-52.734375,46.38671875,-782.2265625,-33.203125,1758423570.6312425,1758423570.6444664
766,-53.22265625,-36.62109375,-745.1171875,-41.50390625,1758423570.6360235,1758423570.6483727
767,-22.4609375,-84.9609375,-869.62890625,-19.53125,1758423570.6408043,1758423570.652279
768,-20.99609375,-44.43359375,-834.9609375,-16.6015625,1758423570.6433804,1758423570.6561852
769,-62.98828125,-48.33984375,-778.3203125,-55.17578125,1758423570.6459568,1758423570.6600914
770,-67.87109375,-85.9375,-797.36328125,-53.7109375,1758423570.6485329,1758423570.6639977
771,-55.17578125,-64.453125,-793.45703125,-40.0390625,1758423570.6511092,1758423570.667904
772,-59.5703125,-36.62109375,-702.63671875,-42.48046875,1758423570.6536853,1758423570.6718102
773,-61.03515625,-72.265625,-715.33203125,-45.41015625,1758423570.6562614,1758423570.6757164
774,-58.59375,-70.3125,-707.51953125,-52.24609375,1758423570.6588378,1758423570.6796227
775,-61.5234375,-34.1796875,-664.0625,-53.7109375,1758423570.661414,1758423570.683529
776,-64.94140625,16.11328125,-545.8984375,-51.26953125,1758423570.6639903,1758423570.6874352
777,-58.10546875,-18.06640625,-506.8359375,-50.78125,1758423570.6665664,1758423570.6913414
778,-49.8046875,-61.03515625,-555.6640625,-54.6875,1758423570.6691427,1758423570.6952477
779,-48.828125,-99.609375,-644.04296875,-46.875,1758423570.6717188,1758423570.699154
780,-41.015625,-6.34765625,-482.421875,-32.2265625,1758423570.675489,1758423570.7030602
781,-41.015625,15.13671875,-311.03515625,-40.52734375,1758423570.679259,1758423570.7069664
782,-45.41015625,-88.8671875,-481.93359375,-39.0625,1758423570.6830292,1758423570.7108727
783,-41.9921875,-58.10546875,-454.58984375,-29.296875,1758423570.6867993,1758423570.714779
784,-41.50390625,-20.99609375,-337.40234375,-30.2734375,1758423570.6905694,1758423570.7186852
785,-40.0390625,-56.15234375,-375.48828125,-38.0859375,1758423570.6943398,1758423570.7225914
786,-36.62109375,-86.42578125,-423.828125,-40.52734375,1758423570.6981099,1758423570.7264977
787,-43.45703125,-49.31640625,-368.1640625,-33.203125,1758423570.70188,1758423570.730404
788,-35.15625,9.27734375,-217.7734375,-28.3203125,1758423570.70565,1758423570.7343102
789,-29.78515625,-16.11328125,-221.6796875,-29.296875,1758423570.7094202,1758423570.7382164
790,-40.52734375,-66.89453125,-306.15234375,-23.4375,1758423570.7131903,1758423570.7421227
791,-38.0859375,-47.8515625,-269.04296875,-16.11328125,1758423570.7169604,1758423570.746029
792,-38.57421875,12.20703125,-131.34765625,-22.4609375,1758423570.7207146,1758423570.7499352
793,-39.0625,-51.7578125,-215.8203125,-34.66796875,1758423570.724469,1758423570.7538414
794,-37.59765625,-43.9453125,-241.2109375,-26.85546875,1758423570.728223,1758423570.7577477
795,-37.109375,3.41796875,-145.01953125,-15.13671875,1758423570.7319775,1758423570.761654
796,-35.15625,-42.96875,-148.92578125,-23.92578125,1758423570.7357316,1758423570.7655602
797,-36.62109375,-81.0546875,-213.37890625,-27.34375,1758423570.7394857,1758423570.7694664
798,-39.0625,-79.1015625,-270.01953125,-26.3671875,1758423570.74324,1758423570.7733727
799,-51.7578125,-6.8359375,-140.13671875,-29.296875,1758423570.7469943,1758423570.777279
800,-51.26953125,19.04296875,32.2265625,-27.34375,1758423570.7507486,1758423570.7811852
801,-37.59765625,-71.2890625,-106.93359375,-20.01953125,1758423570.7545028,1758423570.7850914
802,-36.62109375,-69.82421875,-113.28125,-16.11328125,1758423570.7582572,1758423570.7889977
803,-47.36328125,-36.1328125,-34.66796875,-14.6484375,1758423570.7620113,1758423570.792904
804,-47.8515625,-14.16015625,20.99609375,-15.13671875,1758423570.7668831,1758423570.7968102
805,-52.734375,-69.3359375,-29.78515625,-17.08984375,1758423570.771755,1758423570.8007164
806,-59.08203125,-65.4296875,-59.5703125,-19.53125,1758423570.7766268,1758423570.8046227
807,-47.36328125,6.8359375,87.40234375,-26.85546875,1758423570.7814987,1758423570.808529
808,-40.52734375,-24.90234375,106.4453125,-26.85546875,1758423570.7863705,1758423570.8124352
809,-45.41015625,-109.86328125,-22.94921875,-28.80859375,1758423570.7912421,1758423570.8163414
810,-50.29296875,-45.41015625,12.20703125,-28.3203125,1758423570.796114,1758423570.8202477
811,-54.6875,67.87109375,240.72265625,-35.64453125,1758423570.8009858,1758423570.824154
812,-56.640625,-15.13671875,212.40234375,-50.78125,1758423570.8058577,1758423570.8280602
813,-48.828125,-47.36328125,110.3515625,-47.8515625,1758423570.8107295,1758423570.8319664
814,-51.7578125,-1.46484375,168.9453125,-38.0859375,1758423570.8156013,1758423570.8358727
815,-59.08203125,5.859375,242.67578125,-38.0859375,1758423570.8204732,1758423570.839779
816,-54.19921875,-28.80859375,186.5234375,-40.52734375,1758423570.8242462,1758423570.8436852
817,-56.640625,-39.55078125,125.9765625,-36.62109375,1758423570.8280191,1758423570.8475914
818,-60.546875,15.625,208.0078125,-41.50390625,1758423570.831792,1758423570.8514977
819,-59.5703125,31.73828125,286.1328125,-56.640625,1758423570.835565,1758423570.855404
820,-60.05859375,-3.90625,240.234375,-57.6171875,1758423570.839338,1758423570.8593102
821,-50.29296875,-63.4765625,64.94140625,-44.921875,1758423570.843111,1758423570.8632164
822,-36.1328125,37.109375,194.82421875,-37.109375,1758423570.846884,1758423570.8671227
823,-52.734375,91.30859375,390.625,-42.48046875,1758423570.850657,1758423570.871029
824,-63.96484375,2.9296875,215.8203125,-46.38671875,1758423570.85443,1758423570.8749352
825,-56.640625,27.83203125,178.22265625,-43.45703125,1758423570.858203,1758423570.8788414
826,-54.19921875,66.40625,246.09375,-43.9453125,1758423570.861976,1758423570.8827477
827,-51.7578125,37.109375,196.77734375,-41.50390625,1758423570.865749,1758423570.886654
828,-45.41015625,-3.41796875,101.5625,-35.64453125,1758423570.8695695,1758423570.8905602
829,-48.33984375,-0.48828125,76.171875,-45.41015625,1758423570.8733902,1758423570.8944664
830,-52.24609375,45.41015625,126.46484375,-46.875,1758423570.8772109,1758423570.8983727
831,-55.6640625,28.3203125,81.0546875,-48.33984375,1758423570.8810315,1758423570.902279
832,-57.12890625,-44.43359375,-44.921875,-55.17578125,1758423570.8848522,1758423570.9061852
833,-53.7109375,-4.8828125,-65.4296875,-49.8046875,1758423570.8886728,1758423570.9100914
834,-58.10546875,104.00390625,117.1875,-42.96875,1758423570.8924935,1758423570.9139977
835,-55.17578125,51.7578125,110.83984375,-44.921875,1758423570.8963141,1758423570.917904
836,-45.41015625,-47.8515625,-123.53515625,-34.1796875,1758423570.9001348,1758423570.9218102
837,-44.43359375,-6.8359375,-120.1171875,-22.94921875,1758423570.9039555,1758423570.9257164
838,-41.50390625,64.453125,16.11328125,-27.34375,1758423570.907776,1758423570.9296227
839,-38.57421875,12.6953125,-70.80078125,-31.25,1758423570.9115968,1758423570.933529
840,-36.1328125,-1.953125,-153.80859375,-34.1796875,1758423570.9153693,1758423570.9374352
841,-36.1328125,30.76171875,-101.5625,-40.0390625,1758423570.919142,1758423570.9413414
842,-42.48046875,32.2265625,-40.0390625,-38.57421875,1758423570.9229145,1758423570.9452477
843,-42.96875,-4.39453125,-78.61328125,-28.80859375,1758423570.926687,1758423570.949154
844,-45.41015625,-23.92578125,-151.3671875,-27.34375,1758423570.9304597,1758423570.9530602
845,-51.26953125,11.23046875,-97.65625,-29.296875,1758423570.9342322,1758423570.9569664
846,-47.36328125,12.6953125,-0.48828125,-26.85546875,1758423570.9380047,1758423570.9608727
847,-35.64453125,9.765625,24.90234375,-25.87890625,1758423570.9417775,1758423570.964779
848,-31.25,-49.8046875,-115.234375,-21.484375,1758423570.94555,1758423570.9686852
849,-42.48046875,10.7421875,8.30078125,-25.87890625,1758423570.9493225,1758423570.9725914
850,-41.015625,68.359375,229.00390625,-37.59765625,1758423570.9530952,1758423570.9764977
851,-37.59765625,-28.3203125,44.43359375,-41.015625,1758423570.9568677,1758423570.980404
852,-39.55078125,-23.92578125,14.16015625,-34.66796875,1758423570.96175,1758423570.9843102
853,-40.52734375,0.9765625,70.3125,-29.78515625,1758423570.9666324,1758423570.9882164
854,-45.8984375,-15.625,42.48046875,-33.69140625,1758423570.9715147,1758423570.9921227
855,-41.50390625,-55.6640625,-34.66796875,-26.3671875,1758423570.976397,1758423570.996029
856,-34.1796875,-74.70703125,-66.89453125,-22.94921875,1758423570.9812794,1758423570.9999352
857,-32.71484375,-71.77734375,-67.87109375,-26.85546875,1758423570.9861617,1758423571.0038414
858,-34.66796875,-37.109375,-23.92578125,-30.2734375,1758423570.991044,1758423571.0077477
859,-33.69140625,-117.67578125,-129.39453125,-36.1328125,1758423570.9959264,1758423571.011654
860,-43.9453125,-151.3671875,-250.48828125,-27.34375,1758423571.0008087,1758423571.0155602
861,-41.015625,-41.50390625,-51.7578125,-19.04296875,1758423571.005691,1758423571.0194664
862,-30.2734375,-94.23828125,-27.34375,-21.484375,1758423571.0105734,1758423571.0233727
863,-29.296875,-208.984375,-256.8359375,-23.92578125,1758423571.0154557,1758423571.027279
864,-35.64453125,-180.6640625,-239.2578125,-35.15625,1758423571.018184,1758423571.0311852
865,-47.8515625,-157.71484375,-85.44921875,-46.875,1758423571.0209122,1758423571.0350914
866,-45.8984375,-239.74609375,-161.62109375,-39.0625,1758423571.0236404,1758423571.0389977
867,-39.55078125,-234.375,-184.5703125,-36.62109375,1758423571.0263686,1758423571.042904
868,-31.73828125,-237.3046875,-145.99609375,-41.015625,1758423571.0290968,1758423571.0468102
869,-30.76171875,-303.7109375,-187.98828125,-41.9921875,1758423571.031825,1758423571.0507164
870,-38.0859375,-306.640625,-171.875,-37.109375,1758423571.0345535,1758423571.0546227
871,-39.0625,-289.55078125,-147.94921875,-32.71484375,1758423571.0372818,1758423571.058529
872,-46.38671875,-266.6015625,-39.0625,-34.1796875,1758423571.04001,1758423571.0624352
873,-42.48046875,-316.89453125,38.57421875,-32.71484375,1758423571.0427382,1758423571.0663414
874,-43.45703125,-398.4375,-47.8515625,-32.2265625,1758423571.0454664,1758423571.0702477
875,-44.43359375,-382.8125,-50.29296875,-34.66796875,1758423571.0481946,1758423571.074154
876,-37.59765625,-314.94140625,140.625,-39.0625,1758423571.0518246,1758423571.0780602
877,-43.45703125,-349.609375,238.28125,-44.921875,1758423571.0554545,1758423571.0819664
878,-35.15625,-418.45703125,127.44140625,-41.9921875,1758423571.0590844,1758423571.0858727
879,-32.2265625,-405.2734375,156.73828125,-34.66796875,1758423571.0627143,1758423571.089779
880,-41.50390625,-370.1171875,302.734375,-38.57421875,1758423571.0663443,1758423571.0936852
881,-39.55078125,-395.01953125,273.92578125,-41.015625,1758423571.069974,1758423571.0975914
882,-34.1796875,-441.89453125,230.46875,-28.80859375,1758423571.0736039,1758423571.1014977
883,-30.76171875,-454.1015625,170.41015625,-27.34375,1758423571.0772338,1758423571.105404
884,-31.25,-310.546875,411.62109375,-41.50390625,1758423571.0808637,1758423571.1093102
885,-27.83203125,-369.140625,473.6328125,-43.45703125,1758423571.0844936,1758423571.1132164
886,-30.76171875,-427.24609375,291.9921875,-41.50390625,1758423571.0881236,1758423571.1171227
887,-38.0859375,-391.6015625,301.26953125,-43.45703125,1758423571.0917535,1758423571.121029
888,-32.2265625,-380.859375,354.98046875,-42.48046875,1758423571.0956404,1758423571.1249352
889,-19.53125,-412.59765625,284.1796875,-45.8984375,1758423571.0995274,1758423571.1288414
890,-20.99609375,-427.24609375,138.671875,-41.015625,1758423571.1034145,1758423571.1327477
891,-34.66796875,-315.91796875,246.09375,-39.55078125,1758423571.1073015,1758423571.136654
892,-41.50390625,-312.98828125,321.77734375,-41.9921875,1758423571.1111884,1758423571.1405602
893,-34.1796875,-333.0078125,199.21875,-35.64453125,1758423571.1150756,1758423571.1444664
894,-24.90234375,-312.01171875,81.0546875,-33.203125,1758423571.1189625,1758423571.1483727
895,-24.4140625,-221.19140625,183.59375,-29.78515625,1758423571.1228495,1758423571.152279
896,-21.97265625,-162.59765625,327.63671875,-25.390625,1758423571.1267364,1758423571.1561852
897,-17.08984375,-208.49609375,164.55078125,-30.2734375,1758423571.1306233,1758423571.1600914
898,-22.4609375,-196.77734375,81.0546875,-31.73828125,1758423571.1345105,1758423571.1639977
899,-22.4609375,-153.80859375,118.65234375,-25.390625,1758423571.1383975,1758423571.167904
900,-19.04296875,-132.8125,114.74609375,-27.34375,1758423571.143142,1758423571.1718102
901,-16.6015625,-156.73828125,-1.46484375,-33.203125,1758423571.1478865,1758423571.1757164
902,-19.53125,-116.2109375,-10.25390625,-29.78515625,1758423571.152631,1758423571.1796227
903,-23.4375,-83.0078125,5.859375,-22.94921875,1758423571.1573756,1758423571.183529
904,-23.92578125,-97.65625,-110.3515625,-26.3671875,1758423571.16212,1758423571.1874352
905,-30.2734375,-113.28125,-176.7578125,-31.25,1758423571.1668644,1758423571.1913414
906,-31.73828125,-107.421875,-267.578125,-21.484375,1758423571.171609,1758423571.1952477
907,-27.34375,34.66796875,-67.3828125,-19.53125,1758423571.1763535,1758423571.199154
908,-20.99609375,-9.27734375,-34.1796875,-31.25,1758423571.181098,1758423571.2030602
909,-20.5078125,-66.40625,-208.984375,-40.0390625,1758423571.1858425,1758423571.2069664
910,-22.4609375,-15.13671875,-156.73828125,-43.45703125,1758423571.190587,1758423571.2108727
911,-28.3203125,-8.30078125,-104.00390625,-34.1796875,1758423571.1953316,1758423571.214779
912,-33.69140625,-45.41015625,-148.4375,-29.296875,1758423571.1991804,1758423571.2186852
913,-34.1796875,-46.875,-186.03515625,-26.3671875,1758423571.2030292,1758423571.2225914
914,-28.3203125,-5.37109375,-97.65625,-26.3671875,1758423571.206878,1758423571.2264977
915,-26.85546875,-19.04296875,-12.6953125,-34.1796875,1758423571.2107267,1758423571.230404
916,-36.62109375,-85.44921875,-83.49609375,-45.8984375,1758423571.2145755,1758423571.2343102
917,-39.55078125,-114.74609375,-179.6875,-53.7109375,1758423571.2184243,1758423571.2382164
918,-36.1328125,-71.77734375,-78.61328125,-54.19921875,1758423571.2222729,1758423571.2421227
919,-34.66796875,-65.91796875,68.359375,-50.78125,1758423571.2261217,1758423571.246029
920,-24.90234375,-125.9765625,48.828125,-34.66796875,1758423571.2299705,1758423571.2499352
921,-20.99609375,-201.171875,-162.59765625,-20.99609375,1758423571.2338192,1758423571.2538414
922,-27.34375,-126.953125,-41.015625,-24.4140625,1758423571.237668,1758423571.2577477
923,-27.83203125,-132.8125,122.55859375,-39.55078125,1758423571.2415168,1758423571.261654
924,-32.71484375,-234.86328125,-39.55078125,-41.9921875,1758423571.2452965,1758423571.2655602
925,-39.55078125,-259.765625,-78.125,-30.76171875,1758423571.2490761,1758423571.2694664
926,-33.69140625,-240.234375,-14.6484375,-28.80859375,1758423571.2528558,1758423571.2733727
927,-29.78515625,-260.25390625,-41.015625,-33.203125,1758423571.2566357,1758423571.277279
928,-31.73828125,-306.15234375,-116.69921875,-29.78515625,1758423571.2604153,1758423571.2811852
929,-46.38671875,-314.453125,-155.76171875,-32.2265625,1758423571.264195,1758423571.2850914
930,-56.640625,-252.44140625,-47.8515625,-40.52734375,1758423571.2679746,1758423571.2889977
931,-45.41015625,-227.05078125,33.69140625,-38.57421875,1758423571.2717543,1758423571.292904
932,-42.96875,-338.37890625,-150.87890625,-33.69140625,1758423571.2755342,1758423571.2968102
933,-50.29296875,-320.3125,-228.02734375,-26.85546875,1758423571.2793138,1758423571.3007164
934,-45.41015625,-168.45703125,82.51953125,-33.69140625,1758423571.2830935,1758423571.3046227
935,-40.52734375,-279.296875,63.96484375,-39.55078125,1758423571.286873,1758423571.308529
936,-46.875,-322.265625,-82.03125,-34.66796875,1758423571.2906203,1758423571.3124352
937,-46.875,-281.73828125,-11.23046875,-44.43359375,1758423571.2943676,1758423571.3163414
938,-46.38671875,-313.96484375,0.48828125,-43.9453125,1758423571.2981148,1758423571.3202477
939,-52.734375,-341.30859375,-35.64453125,-42.48046875,1758423571.3018618,1758423571.324154
940,-60.05859375,-353.515625,-74.21875,-45.8984375,1758423571.305609,1758423571.3280602
941,-46.875,-340.8203125,-68.359375,-33.203125,1758423571.3093562,1758423571.3319664
942,-44.43359375,-289.0625,36.1328125,-30.76171875,1758423571.3131034,1758423571.3358727
943,-52.24609375,-299.31640625,44.43359375,-40.52734375,1758423571.3168507,1758423571.339779
944,-38.0859375,-345.703125,-135.25390625,-34.1796875,1758423571.3205976,1758423571.3436852
945,-44.921875,-225.5859375,-0.9765625,-32.2265625,1758423571.3243449,1758423571.3475914
946,-47.8515625,-201.66015625,138.671875,-36.1328125,1758423571.328092,1758423571.3514977
947,-52.24609375,-293.45703125,-60.05859375,-36.62109375,1758423571.3318393,1758423571.355404
948,-57.12890625,-243.65234375,-53.7109375,-40.0390625,1758423571.3355877,1758423571.3593102
949,-54.19921875,-189.94140625,72.265625,-33.69140625,1758423571.339336,1758423571.3632164
950,-51.7578125,-245.60546875,32.71484375,-28.3203125,1758423571.3430843,1758423571.3671227
951,-47.36328125,-286.1328125,-64.453125,-28.80859375,1758423571.3468325,1758423571.371029
952,-41.015625,-286.1328125,-82.03125,-34.1796875,1758423571.350581,1758423571.3749352
953,-28.80859375,-264.6484375,-45.41015625,-44.43359375,1758423571.354329,1758423571.3788414
954,-21.97265625,-238.28125,-23.92578125,-45.8984375,1758423571.3580775,1758423571.3827477
955,-14.6484375,-310.05859375,-106.4453125,-41.015625,1758423571.361826,1758423571.386654
956,-26.85546875,-280.76171875,-110.3515625,-43.9453125,1758423571.3655741,1758423571.3905602
957,-33.69140625,-179.6875,82.51953125,-47.36328125,1758423571.3693225,1758423571.3944664
958,-19.53125,-280.2734375,-0.9765625,-34.1796875,1758423571.3730707,1758423571.3983727
959,-24.4140625,-312.98828125,-124.51171875,-24.4140625,1758423571.3768191,1758423571.402279
960,-31.73828125,-273.92578125,-77.63671875,-30.76171875,1758423571.3819413,1758423571.4061852
961,-39.55078125,-311.03515625,-74.70703125,-28.3203125,1758423571.3870633,1758423571.4100914
962,-40.52734375,-356.93359375,-146.484375,-25.87890625,1758423571.3921854,1758423571.4139977
963,-41.9921875,-337.890625,-162.59765625,-30.76171875,1758423571.3973076,1758423571.417904
964,-48.33984375,-301.7578125,-71.2890625,-37.59765625,1758423571.4024296,1758423571.4218102
965,-47.36328125,-360.83984375,-77.1484375,-35.15625,1758423571.4075518,1758423571.4257164
966,-49.31640625,-362.79296875,-86.9140625,-38.57421875,1758423571.412674,1758423571.4296227
967,-49.8046875,-379.8828125,-143.5546875,-46.875,1758423571.417796,1758423571.433529
968,-49.8046875,-345.703125,-72.265625,-45.41015625,1758423571.422918,1758423571.4374352
969,-49.8046875,-324.70703125,75.1953125,-52.24609375,1758423571.4280403,1758423571.4413414
970,-50.29296875,-392.578125,-52.734375,-53.7109375,1758423571.4331622,1758423571.4452477
971,-46.38671875,-366.69921875,-50.29296875,-56.640625,1758423571.4382844,1758423571.449154
972,-44.921875,-321.2890625,17.578125,-54.19921875,1758423571.4406335,1758423571.4530602
973,-48.828125,-311.5234375,1.46484375,-52.734375,1758423571.4429827,1758423571.4569664
974,-46.875,-324.70703125,-57.6171875,-57.6171875,1758423571.4453318,1758423571.4608727
975,-45.8984375,-286.1328125,-34.1796875,-53.22265625,1758423571.447681,1758423571.464779
976,-42.48046875,-241.69921875,0.0,-42.48046875,1758423571.45003,1758423571.4686852
977,-34.1796875,-232.91015625,-38.0859375,-36.62109375,1758423571.4523792,1758423571.4725914
978,-23.92578125,-241.2109375,-58.10546875,-32.71484375,1758423571.4547281,1758423571.4764977
979,-27.83203125,-205.56640625,1.953125,-37.109375,1758423571.4570773,1758423571.480404
980,-34.1796875,-140.625,78.125,-43.9453125,1758423571.4594264,1758423571.4843102
981,-41.9921875,-130.37109375,61.03515625,-41.9921875,1758423571.4617755,1758423571.4882164
982,-38.0859375,-219.7265625,-83.0078125,-34.1796875,1758423571.4641247,1758423571.4921227
983,-29.78515625,-156.73828125,-101.07421875,-24.4140625,1758423571.4664738,1758423571.496029
,TP9,AF7,AF8,TP10,board_ts,unix_ts
0,-34.66796875,5.37109375,187.98828125,-28.3203125,1758423571.4702568,1758423571.4941616
1,-35.15625,-105.46875,111.81640625,-30.76171875,1758423571.4740398,1758423571.4980679
2,-31.25,-115.234375,-0.48828125,-34.66796875,1758423571.4778228,1758423571.501974
3,-39.55078125,-59.08203125,61.03515625,-42.48046875,1758423571.4816058,1758423571.5058804
4,-47.36328125,-102.5390625,33.203125,-45.8984375,1758423571.4853888,1758423571.5097866
5,-52.734375,-123.53515625,-38.0859375,-51.7578125,1758423571.4891717,1758423571.5136929
6,-55.6640625,-154.296875,-175.29296875,-42.96875,1758423571.4929547,1758423571.517599
7,-50.78125,-66.40625,-62.98828125,-35.15625,1758423571.4967377,1758423571.5215054
8,-55.17578125,9.765625,145.99609375,-43.9453125,1758423571.5005207,1758423571.5254116
9,-51.7578125,-104.00390625,-31.25,-45.8984375,1758423571.5043037,1758423571.5293179
10,-61.03515625,-99.12109375,-80.56640625,-52.734375,1758423571.5080867,1758423571.533224
11,-63.96484375,-69.3359375,-16.6015625,-52.24609375,1758423571.5118697,1758423571.5371304
12,-41.015625,-87.890625,-38.57421875,-38.0859375,1758423571.5167615,1758423571.5410366
13,-42.48046875,-134.27734375,-135.7421875,-33.203125,1758423571.5216537,1758423571.5449429
14,-51.7578125,-122.0703125,-120.60546875,-45.41015625,1758423571.5265455,1758423571.548849
15,-53.22265625,-79.1015625,-50.29296875,-51.7578125,1758423571.5314374,1758423571.5527554
16,-46.38671875,-97.16796875,-86.42578125,-42.96875,1758423571.5363295,1758423571.5566616
17,-37.109375,-165.52734375,-190.4296875,-36.1328125,1758423571.5412214,1758423571.5605679
18,-37.59765625,-96.19140625,-159.1796875,-29.296875,1758423571.5461133,1758423571.564474
19,-32.71484375,19.53125,47.8515625,-35.64453125,1758423571.5510054,1758423571.5683804
20,-30.76171875,-75.68359375,-22.94921875,-43.9453125,1758423571.5558972,1758423571.5722866
21,-27.83203125,-166.015625,-203.61328125,-29.296875,1758423571.560789,1758423571.5761929
22,-23.92578125,-144.53125,-173.828125,-19.04296875,1758423571.5656812,1758423571.580099
23,-21.97265625,-70.3125,-11.23046875,-16.6015625,1758423571.570573,1758423571.5840054
24,-14.6484375,-104.4921875,-37.59765625,-17.578125,1758423571.574434,1758423571.5879116
25,-16.6015625,-125.9765625,-104.00390625,-26.85546875,1758423571.578295,1758423571.5918179
26,-16.6015625,-88.37890625,-22.94921875,-23.4375,1758423571.5821557,1758423571.595724
27,-23.92578125,-104.00390625,17.578125,-24.4140625,1758423571.5860167,1758423571.5996304
28,-20.99609375,-143.5546875,-27.83203125,-31.25,1758423571.5898776,1758423571.6035366
29,-4.39453125,-155.2734375,-101.07421875,-23.4375,1758423571.5937386,1758423571.6074429
30,-12.20703125,-72.265625,32.2265625,-15.625,1758423571.5975995,1758423571.611349
31,-10.7421875,-71.77734375,148.92578125,-14.16015625,1758423571.6014605,1758423571.6152554
32,-16.11328125,-148.4375,49.31640625,-21.97265625,1758423571.6053214,1758423571.6191616
33,-29.78515625,-123.046875,21.484375,-30.2734375,1758423571.6091821,1758423571.6230679
34,-28.80859375,-70.3125,148.92578125,-33.203125,1758423571.613043,1758423571.626974
35,-28.3203125,-145.99609375,125.48828125,-27.83203125,1758423571.616904,1758423571.6308804
36,-21.97265625,-192.87109375,45.41015625,-23.92578125,1758423571.6206553,1758423571.6347866
37,-20.99609375,-162.59765625,108.88671875,-23.92578125,1758423571.6244066,1758423571.6386929
38,-23.4375,-145.5078125,194.82421875,-15.13671875,1758423571.628158,1758423571.642599
39,-30.2734375,-203.61328125,141.11328125,-21.97265625,1758423571.6319094,1758423571.6465054
40,-31.25,-263.18359375,43.45703125,-28.80859375,1758423571.6356606,1758423571.6504116
41,-13.671875,-269.53125,2.44140625,-15.625,1758423571.639412,1758423571.6543179
42,-3.90625,-199.21875,101.07421875,-3.41796875,1758423571.6431632,1758423571.658224
43,-3.90625,-194.3359375,161.62109375,1.953125,1758423571.6469145,1758423571.6621304
44,-6.34765625,-312.01171875,-29.78515625,8.30078125,1758423571.6506658,1758423571.6660366
45,-5.37109375,-254.39453125,-43.9453125,14.6484375,1758423571.6544173,1758423571.6699429
46,-1.46484375,-129.39453125,156.73828125,6.34765625,1758423571.6581686,1758423571.673849
47,-8.30078125,-217.28515625,66.40625,-1.46484375,1758423571.6619198,1758423571.6777554
48,-10.25390625,-215.8203125,-28.3203125,-2.9296875,1758423571.6657836,1758423571.6816616
49,-6.8359375,-188.96484375,-15.13671875,0.0,1758423571.6696477,1758423571.6855679
50,-13.671875,-178.7109375,16.6015625,-2.9296875,1758423571.6735115,1758423571.689474
51,-7.8125,-168.45703125,39.55078125,-8.30078125,1758423571.6773753,1758423571.6933804
52,0.0,-216.30859375,-74.21875,-12.20703125,1758423571.6812391,1758423571.6972866
53,-11.71875,-152.34375,-25.390625,-20.01953125,1758423571.685103,1758423571.7011929
54,-15.625,-105.46875,114.74609375,-14.6484375,1758423571.688967,1758423571.705099
55,-10.7421875,-143.06640625,94.7265625,-3.90625,1758423571.6928308,1758423571.7090054
56,-15.13671875,-212.40234375,-90.8203125,-5.37109375,1758423571.6966946,1758423571.7129116
57,-26.85546875,-105.46875,22.4609375,-18.06640625,1758423571.7005587,1758423571.7168179
58,-21.484375,-68.359375,188.96484375,-14.6484375,1758423571.7044225,1758423571.720724
59,-11.71875,-137.6953125,75.68359375,-13.18359375,1758423571.7082863,1758423571.7246304
60,-17.578125,-110.3515625,98.6328125,-18.5546875,1758423571.7142634,1758423571.7285366
61,-21.484375,-71.77734375,161.62109375,-15.13671875,1758423571.7202406,1758423571.7324429
62,-20.5078125,-81.54296875,157.71484375,-20.99609375,1758423571.7262175,1758423571.736349
63,-16.6015625,-103.02734375,118.1640625,-21.97265625,1758423571.7321947,1758423571.7402554
64,-20.99609375,-81.0546875,115.234375,-21.97265625,1758423571.7381718,1758423571.7441616
65,-32.71484375,-56.15234375,169.43359375,-32.2265625,1758423571.7441487,1758423571.7480679
66,-30.2734375,-33.203125,218.26171875,-35.15625,1758423571.750126,1758423571.751974
67,-25.390625,-87.890625,167.96875,-23.4375,1758423571.756103,1758423571.7558804
68,-20.01953125,-102.05078125,63.4765625,-12.20703125,1758423571.7620802,1758423571.7597866
69,-19.04296875,52.24609375,292.96875,-15.13671875,1758423571.7680573,1758423571.7636929
70,-18.5546875,-23.4375,313.4765625,-18.06640625,1758423571.7740343,1758423571.767599
71,-22.94921875,-67.87109375,161.1328125,-20.01953125,1758423571.7800114,1758423571.7715054
72,-21.97265625,-20.5078125,226.5625,-23.92578125,1758423571.7814038,1758423571.7754116
73,-16.6015625,-33.203125,256.8359375,-18.06640625,1758423571.7827964,1758423571.7793179
74,-18.06640625,-67.3828125,199.70703125,-20.01953125,1758423571.7841887,1758423571.783224
75,-17.578125,-48.828125,188.96484375,-29.78515625,1758423571.785581,1758423571.7871304
76,-18.5546875,-36.1328125,221.19140625,-28.80859375,1758423571.7869737,1758423571.7910366
77,-7.32421875,-87.890625,160.64453125,-11.71875,1758423571.788366,1758423571.7949429
78,3.90625,-62.98828125,180.17578125,-7.32421875,1758423571.7897584,1758423571.798849
79,-13.18359375,-105.46875,87.40234375,-21.97265625,1758423571.791151,1758423571.8027554
80,-41.50390625,-42.96875,180.6640625,-33.203125,1758423571.7925434,1758423571.8066616
81,-40.52734375,-12.6953125,328.125,-41.015625,1758423571.7939358,1758423571.8105679
82,-28.80859375,-123.53515625,120.1171875,-46.875,1758423571.7953284,1758423571.814474
83,-36.62109375,-94.23828125,86.42578125,-44.921875,1758423571.7967207,1758423571.8183804
84,-30.2734375,-48.828125,164.0625,-35.64453125,1758423571.800483,1758423571.8222866
85,-27.83203125,-84.9609375,109.375,-39.0625,1758423571.8042452,1758423571.8261929
86,-28.80859375,-156.25,-45.8984375,-39.0625,1758423571.8080077,1758423571.830099
87,-27.34375,-126.46484375,-107.421875,-34.1796875,1758423571.81177,1758423571.8340054
88,-22.4609375,-72.265625,-17.08984375,-33.203125,1758423571.8155322,1758423571.8379116
89,-18.5546875,-138.18359375,-96.19140625,-27.34375,1758423571.8192945,1758423571.8418179
90,-25.390625,-195.80078125,-230.95703125,-20.5078125,1758423571.8230567,1758423571.845724
91,-23.4375,-168.9453125,-231.4453125,-17.08984375,1758423571.826819,1758423571.8496304
92,-25.87890625,-104.4921875,-125.9765625,-26.85546875,1758423571.8305812,1758423571.8535366
93,-30.76171875,-200.68359375,-246.09375,-33.203125,1758423571.8343437,1758423571.8574429
94,-27.34375,-272.94921875,-424.8046875,-27.34375,1758423571.838106,1758423571.861349
95,-36.1328125,-237.79296875,-380.37109375,-26.3671875,1758423571.8418682,1758423571.8652554
96,-39.0625,-191.89453125,-288.57421875,-30.2734375,1758423571.8456166,1758423571.8691616
97,-34.66796875,-252.44140625,-408.69140625,-29.296875,1758423571.849365,1758423571.8730679
98,-31.25,-254.39453125,-483.3984375,-32.71484375,1758423571.8531134,1758423571.876974
99,-20.5078125,-220.21484375,-438.4765625,-35.64453125,1758423571.8568618,1758423571.8808804
100,-24.90234375,-268.06640625,-475.5859375,-28.80859375,1758423571.8606102,1758423571.8847866
101,-32.2265625,-306.15234375,-564.453125,-25.87890625,1758423571.8643587,1758423571.8886929
102,-31.25,-320.3125,-645.01953125,-18.5546875,1758423571.868107,1758423571.892599
103,-32.71484375,-254.39453125,-529.78515625,-11.23046875,1758423571.8718555,1758423571.8965054
104,-27.83203125,-232.91015625,-407.2265625,-21.484375,1758423571.875604,1758423571.9004116
105,-12.20703125,-314.94140625,-563.96484375,-11.71875,1758423571.8793523,1758423571.9043179
106,9.765625,-284.66796875,-561.5234375,6.34765625,1758423571.8831007,1758423571.908224
107,14.16015625,-277.83203125,-544.921875,5.859375,1758423571.8868492,1758423571.9121304
108,-3.90625,-275.87890625,-520.5078125,-4.39453125,1758423571.8917031,1758423571.9160366
109,-11.71875,-300.78125,-514.6484375,-11.71875,1758423571.8965569,1758423571.9199429
110,-2.9296875,-298.33984375,-544.43359375,-16.11328125,1758423571.9014106,1758423571.923849
111,1.46484375,-234.86328125,-427.24609375,-17.08984375,1758423571.9062645,1758423571.9277554
112,-2.9296875,-284.66796875,-443.359375,-14.16015625,1758423571.9111185,1758423571.9316616
113,-6.8359375,-357.91015625,-554.6875,-19.53125,1758423571.9159722,1758423571.9355679
114,-7.8125,-291.9921875,-482.421875,-14.16015625,1758423571.920826,1758423571.939474
115,-10.25390625,-212.890625,-280.76171875,-15.13671875,1758423571.92568,1758423571.9433804
116,-14.6484375,-309.5703125,-329.58984375,-23.92578125,1758423571.930534,1758423571.9472866
117,-12.6953125,-336.9140625,-406.25,-19.53125,1758423571.9353876,1758423571.9511929
118,-23.92578125,-298.828125,-321.2890625,-17.08984375,1758423571.9402413,1758423571.955099
119,-24.90234375,-283.69140625,-250.9765625,-21.484375,1758423571.9450953,1758423571.9590054
120,-16.11328125,-310.546875,-284.1796875,-20.01953125,1758423571.9490356,1758423571.9629116
121,-22.4609375,-328.125,-314.453125,-16.11328125,1758423571.952976,1758423571.9668179
122,-18.5546875,-261.23046875,-228.02734375,-14.6484375,1758423571.9569163,1758423571.970724
123,-19.53125,-213.37890625,-100.5859375,-19.53125,1758423571.9608567,1758423571.9746304
124,-28.80859375,-252.9296875,-108.88671875,-32.2265625,1758423571.964797,1758423571.9785366
125,-31.73828125,-329.1015625,-268.06640625,-47.8515625,1758423571.9687371,1758423571.9824429
126,-42.96875,-230.46875,-136.71875,-52.734375,1758423571.9726775,1758423571.986349
127,-43.45703125,-137.6953125,104.98046875,-55.6640625,1758423571.9766178,1758423571.9902554
128,-28.3203125,-234.86328125,-26.3671875,-50.78125,1758423571.9805582,1758423571.9941616
129,-24.90234375,-202.1484375,-28.80859375,-40.0390625,1758423571.9844985,1758423571.9980679
130,-29.78515625,-184.08203125,29.296875,-35.15625,1758423571.9884388,1758423572.001974
131,-24.90234375,-213.37890625,26.85546875,-26.85546875,1758423571.9923792,1758423572.0058804
132,-22.94921875,-221.6796875,16.6015625,-22.4609375,1758423571.996056,1758423572.0097866
133,-17.578125,-221.19140625,11.23046875,-29.78515625,1758423571.9997332,1758423572.0136929
134,-3.90625,-176.7578125,94.7265625,-34.1796875,1758423572.0034103,1758423572.017599
135,-8.30078125,-183.10546875,93.75,-32.2265625,1758423572.0070872,1758423572.0215054
136,-19.04296875,-241.69921875,14.6484375,-34.66796875,1758423572.0107641,1758423572.0254116
137,-19.53125,-244.62890625,-2.44140625,-24.90234375,1758423572.0144413,1758423572.0293179
138,-12.20703125,-159.1796875,116.69921875,-15.13671875,1758423572.0181184,1758423572.033224
139,-12.6953125,-120.1171875,201.171875,-13.18359375,1758423572.0217953,1758423572.0371304
140,-18.5546875,-230.95703125,61.03515625,-13.18359375,1758423572.0254722,1758423572.0410366
141,-8.7890625,-209.47265625,-7.32421875,-7.32421875,1758423572.0291493,1758423572.0449429
142,1.46484375,-56.15234375,250.0,-8.7890625,1758423572.0328264,1758423572.048849
143,-5.37109375,-164.0625,196.77734375,-21.484375,1758423572.0365033,1758423572.0527554
144,-8.7890625,-200.1953125,73.73046875,-30.2734375,1758423572.040284,1758423572.0566616
145,-5.37109375,-156.73828125,136.23046875,-27.83203125,1758423572.0440648,1758423572.0605679
146,-8.7890625,-167.48046875,160.15625,-22.4609375,1758423572.0478454,1758423572.064474
147,-22.4609375,-196.2890625,128.90625,-26.3671875,1758423572.051626,1758423572.0683804
148,-27.83203125,-210.9375,90.33203125,-29.78515625,1758423572.0554068,1758423572.0722866
149,-23.92578125,-192.87109375,96.6796875,-29.296875,1758423572.0591874,1758423572.0761929
150,-27.83203125,-191.40625,128.90625,-29.78515625,1758423572.062968,1758423572.080099
151,-22.94921875,-188.4765625,144.53125,-24.90234375,1758423572.0667489,1758423572.0840054
152,-22.94921875,-248.53515625,17.08984375,-17.08984375,1758423572.0705295,1758423572.0879116
153,-25.87890625,-177.24609375,97.16796875,-17.578125,1758423572.07431,1758423572.0918179
154,-23.92578125,-92.7734375,293.45703125,-22.4609375,1758423572.078091,1758423572.095724
155,-29.78515625,-204.58984375,104.00390625,-19.53125,1758423572.0818715,1758423572.0996304
156,-25.87890625,-185.546875,70.80078125,-25.390625,1758423572.0856214,1758423572.1035366
157,-15.13671875,-128.41796875,140.13671875,-24.4140625,1758423572.0893712,1758423572.1074429
158,-16.6015625,-132.32421875,104.4921875,-22.4609375,1758423572.0931208,1758423572.111349
159,-14.6484375,-147.94921875,28.80859375,-34.1796875,1758423572.0968707,1758423572.1152554
160,-17.578125,-139.16015625,8.30078125,-30.2734375,1758423572.1006205,1758423572.1191616
161,-17.08984375,-103.515625,41.015625,-24.4140625,1758423572.10437,1758423572.1230679
162,-17.08984375,-39.55078125,80.56640625,-28.3203125,1758423572.10812,1758423572.126974
163,-22.94921875,-93.26171875,-18.06640625,-24.4140625,1758423572.1118698,1758423572.1308804
164,-19.53125,-57.6171875,-62.01171875,-21.484375,1758423572.1156197,1758423572.1347866
165,-15.625,72.75390625,100.5859375,-20.5078125,1758423572.1193695,1758423572.1386929
166,-10.7421875,44.921875,63.96484375,-14.16015625,1758423572.123119,1758423572.142599
167,-14.6484375,-22.4609375,-93.26171875,-9.765625,1758423572.126869,1758423572.1465054
168,-15.625,31.25,-77.1484375,-4.39453125,1758423572.1307423,1758423572.1504116
169,-26.3671875,110.3515625,37.109375,-18.06640625,1758423572.134616,1758423572.1543179
170,-35.15625,58.59375,-56.640625,-21.484375,1758423572.1384892,1758423572.158224
171,-31.73828125,83.984375,-102.05078125,-20.01953125,1758423572.1423626,1758423572.1621304
172,-39.0625,113.28125,-82.51953125,-29.78515625,1758423572.146236,1758423572.1660366
173,-43.45703125,98.6328125,-107.91015625,-23.4375,1758423572.1501093,1758423572.1699429
174,-46.38671875,132.32421875,-76.66015625,-21.484375,1758423572.1539829,1758423572.173849
175,-45.8984375,86.9140625,-177.734375,-24.4140625,1758423572.1578562,1758423572.1777554
176,-37.109375,138.671875,-140.625,-20.5078125,1758423572.1617296,1758423572.1816616
177,-31.73828125,185.05859375,-2.9296875,-29.78515625,1758423572.1656032,1758423572.1855679
178,-28.80859375,109.86328125,-133.7890625,-27.34375,1758423572.1694765,1758423572.189474
179,-31.25,100.09765625,-200.68359375,-23.4375,1758423572.1733499,1758423572.1933804
180,-34.66796875,153.80859375,-125.0,-39.0625,1758423572.1770272,1758423572.1972866
181,-31.25,173.828125,-68.359375,-44.921875,1758423572.1807044,1758423572.2011929
182,-28.3203125,108.3984375,-187.01171875,-46.38671875,1758423572.1843817,1758423572.205099
183,-28.3203125,123.53515625,-202.1484375,-42.48046875,1758423572.188059,1758423572.2090054
184,-26.3671875,164.55078125,-123.53515625,-33.203125,1758423572.1917362,1758423572.2129116
185,-6.34765625,138.18359375,-187.98828125,-22.4609375,1758423572.1954136,1758423572.2168179
186,-11.71875,109.375,-232.91015625,-29.78515625,1758423572.199091,1758423572.220724
187,-43.9453125,94.23828125,-306.15234375,-39.0625,1758423572.202768,1758423572.2246304
188,-40.52734375,227.05078125,-130.37109375,-29.296875,1758423572.2064455,1758423572.2285366
189,-30.2734375,180.17578125,-87.890625,-31.73828125,1758423572.2101228,1758423572.2324429
190,-32.2265625,117.1875,-251.953125,-37.59765625,1758423572.2138,1758423572.236349
191,-32.71484375,162.59765625,-233.88671875,-39.0625,1758423572.2174773,1758423572.2402554
192,-32.2265625,153.80859375,-208.984375,-34.66796875,1758423572.2213378,1758423572.2441616
193,-34.1796875,104.98046875,-295.41015625,-37.59765625,1758423572.2251983,1758423572.2480679
194,-40.52734375,108.3984375,-360.83984375,-45.8984375,1758423572.2290587,1758423572.251974
195,-42.96875,180.6640625,-271.484375,-42.96875,1758423572.2329192,1758423572.2558804
196,-40.52734375,142.08984375,-265.625,-42.48046875,1758423572.2367797,1758423572.2597866
197,-46.38671875,100.5859375,-342.7734375,-46.875,1758423572.2406402,1758423572.2636929
198,-44.921875,62.98828125,-456.0546875,-38.0859375,1758423572.2445004,1758423572.267599
199,-37.109375,122.0703125,-379.39453125,-26.3671875,1758423572.2483609,1758423572.2715054
200,-45.8984375,182.12890625,-220.703125,-36.1328125,1758423572.2522213,1758423572.2754116
201,-49.8046875,84.47265625,-367.1875,-36.1328125,1758423572.2560818,1758423572.2793179
202,-39.55078125,90.33203125,-395.5078125,-31.73828125,1758423572.2599423,1758423572.283224
203,-38.0859375,121.09375,-357.421875,-38.57421875,1758423572.2638028,1758423572.2871304
204,-37.59765625,100.5859375,-374.0234375,-41.9921875,1758423572.2685585,1758423572.2910366
205,-31.25,61.03515625,-458.0078125,-58.10546875,1758423572.273314,1758423572.2949429
206,-36.62109375,75.1953125,-453.61328125,-62.5,1758423572.2780697,1758423572.298849
207,-42.96875,105.46875,-377.44140625,-60.05859375,1758423572.2828255,1758423572.3027554
208,-36.62109375,77.63671875,-434.08203125,-59.5703125,1758423572.2875812,1758423572.3066616
209,-37.59765625,17.578125,-511.71875,-45.41015625,1758423572.292337,1758423572.3105679
210,-41.50390625,4.39453125,-599.12109375,-32.2265625,1758423572.2970924,1758423572.314474
211,-38.0859375,153.3203125,-379.8828125,-32.2265625,1758423572.3018482,1758423572.3183804
212,-44.921875,123.53515625,-300.78125,-26.3671875,1758423572.306604,1758423572.3222866
213,-51.7578125,38.57421875,-481.4453125,-23.92578125,1758423572.3113594,1758423572.3261929
214,-44.43359375,76.66015625,-457.03125,-26.85546875,1758423572.3161151,1758423572.330099
215,-48.33984375,89.84375,-408.69140625,-30.76171875,1758423572.3208709,1758423572.3340054
216,-50.29296875,56.15234375,-442.3828125,-25.87890625,1758423572.324692,1758423572.3379116
217,-49.31640625,51.7578125,-477.05078125,-17.08984375,1758423572.3285131,1758423572.3418179
218,-45.41015625,88.8671875,-420.41015625,-22.94921875,1758423572.332334,1758423572.345724
219,-35.15625,82.51953125,-376.953125,-24.4140625,1758423572.3361552,1758423572.3496304
220,-36.62109375,38.57421875,-419.921875,-24.90234375,1758423572.3399763,1758423572.3535366
221,-41.50390625,36.1328125,-458.49609375,-29.296875,1758423572.3437974,1758423572.3574429
222,-53.22265625,66.40625,-402.83203125,-33.203125,1758423572.3476186,1758423572.361349
223,-62.01171875,67.87109375,-347.65625,-28.80859375,1758423572.3514397,1758423572.3652554
224,-49.8046875,59.08203125,-325.1953125,-27.34375,1758423572.3552608,1758423572.3691616
225,-30.76171875,-20.01953125,-472.16796875,-18.5546875,1758423572.3590817,1758423572.3730679
226,-24.90234375,70.3125,-364.74609375,-13.18359375,1758423572.3629029,1758423572.376974
227,-35.15625,113.28125,-179.6875,-23.92578125,1758423572.366724,1758423572.3808804
228,-42.96875,10.7421875,-319.82421875,-24.4140625,1758423572.3704867,1758423572.3847866
229,-37.109375,22.94921875,-318.84765625,-20.99609375,1758423572.3742495,1758423572.3886929
230,-34.1796875,66.89453125,-216.30859375,-29.296875,1758423572.3780122,1758423572.392599
231,-41.9921875,49.31640625,-212.40234375,-28.80859375,1758423572.3817751,1758423572.3965054
232,-42.96875,-0.9765625,-274.4140625,-25.390625,1758423572.3855379,1758423572.4004116
233,-45.8984375,-18.5546875,-287.59765625,-32.2265625,1758423572.3893006,1758423572.4043179
234,-43.9453125,50.29296875,-152.83203125,-35.15625,1758423572.3930633,1758423572.408224
235,-39.55078125,60.05859375,-77.63671875,-37.109375,1758423572.396826,1758423572.4121304
236,-45.8984375,-45.41015625,-205.078125,-38.0859375,1758423572.400589,1758423572.4160366
237,-48.33984375,-46.875,-237.3046875,-34.66796875,1758423572.4043517,1758423572.4199429
238,-45.41015625,52.24609375,-41.50390625,-37.109375,1758423572.4081144,1758423572.423849
239,-43.9453125,19.53125,-6.34765625,-44.921875,1758423572.4118772,1758423572.4277554
240,-54.19921875,-58.10546875,-145.01953125,-48.33984375,1758423572.4156237,1758423572.4316616
241,-59.08203125,-21.484375,-112.79296875,-50.29296875,1758423572.4193702,1758423572.4355679
242,-54.19921875,30.2734375,30.76171875,-57.6171875,1758423572.4231167,1758423572.439474
243,-48.828125,-30.2734375,-24.90234375,-56.640625,1758423572.4268632,1758423572.4433804
244,-49.8046875,-39.55078125,-61.03515625,-49.31640625,1758423572.4306097,1758423572.4472866
245,-60.546875,-20.01953125,-31.25,-46.38671875,1758423572.4343562,1758423572.4511929
246,-52.734375,9.765625,51.7578125,-44.43359375,1758423572.4381025,1758423572.455099
247,-41.9921875,-7.8125,74.70703125,-44.921875,1758423572.441849,1758423572.4590054
248,-45.41015625,-83.984375,-98.6328125,-36.62109375,1758423572.4455955,1758423572.4629116
249,-48.33984375,5.37109375,9.765625,-36.62109375,1758423572.449342,1758423572.4668179
250,-42.96875,38.0859375,172.36328125,-46.38671875,1758423572.4530885,1758423572.470724
251,-49.8046875,-58.59375,45.8984375,-41.015625,1758423572.456835,1758423572.4746304
252,-53.22265625,-48.828125,20.99609375,-41.50390625,1758423572.461837,1758423572.4785366
253,-41.50390625,-11.23046875,84.9609375,-36.62109375,1758423572.4668388,1758423572.4824429
254,-49.31640625,-39.55078125,85.44921875,-37.109375,1758423572.4718409,1758423572.486349
255,-50.78125,-91.796875,23.4375,-37.59765625,1758423572.4768429,1758423572.4902554
256,-41.9921875,-121.58203125,-1.953125,-29.78515625,1758423572.4818447,1758423572.4941616
257,-43.45703125,-113.28125,36.62109375,-35.15625,1758423572.4868467,1758423572.4980679
258,-41.50390625,-86.42578125,99.609375,-36.1328125,1758423572.4918487,1758423572.501974
259,-26.3671875,-170.41015625,55.17578125,-25.390625,1758423572.4968505,1758423572.5058804
260,-19.04296875,-187.98828125,15.13671875,-13.671875,1758423572.5018525,1758423572.5097866
261,-36.62109375,-94.7265625,196.2890625,-27.34375,1758423572.5068545,1758423572.5136929
262,-44.43359375,-202.1484375,146.97265625,-41.015625,1758423572.5118563,1758423572.517599
263,-41.9921875,-261.71875,25.87890625,-42.48046875,1758423572.5168583,1758423572.5215054
264,-38.0859375,-243.1640625,81.0546875,-33.69140625,1758423572.5194743,1758423572.5254116
265,-39.0625,-266.11328125,145.5078125,-22.94921875,1758423572.5220904,1758423572.5293179
266,-34.1796875,-326.66015625,83.49609375,-25.390625,1758423572.5247064,1758423572.533224
267,-29.296875,-348.6328125,36.1328125,-18.5546875,1758423572.5273223,1758423572.5371304
268,-34.66796875,-315.4296875,141.11328125,-20.01953125,1758423572.5299385,1758423572.5410366
269,-26.85546875,-343.75,167.96875,-19.53125,1758423572.5325544,1758423572.5449429
270,-18.5546875,-356.4453125,141.6015625,-12.20703125,1758423572.5351703,1758423572.548849
271,-19.53125,-304.6875,199.70703125,-17.578125,1758423572.5377865,1758423572.5527554
272,-30.76171875,-300.78125,251.953125,-20.99609375,1758423572.5404024,1758423572.5566616
273,-28.3203125,-343.75,239.2578125,-14.6484375,1758423572.5430183,1758423572.5605679
274,-18.06640625,-380.859375,167.96875,-10.7421875,1758423572.5456345,1758423572.564474
275,-22.4609375,-398.92578125,66.89453125,-20.5078125,1758423572.5482504,1758423572.5683804
276,-24.90234375,-285.64453125,219.7265625,-24.4140625,1758423572.5518692,1758423572.5722866
277,-26.85546875,-297.8515625,304.6875,-23.4375,1758423572.5554879,1758423572.5761929
278,-35.64453125,-368.65234375,169.921875,-24.90234375,1758423572.5591068,1758423572.580099
279,-33.203125,-342.28515625,178.7109375,-18.5546875,1758423572.5627255,1758423572.5840054
280,-36.1328125,-326.171875,206.54296875,-16.6015625,1758423572.5663443,1758423572.5879116
281,-38.0859375,-320.80078125,165.0390625,-22.94921875,1758423572.569963,1758423572.5918179
282,-45.41015625,-356.4453125,98.14453125,-20.99609375,1758423572.5735817,1758423572.595724
283,-48.828125,-371.09375,15.625,-14.6484375,1758423572.5772004,1758423572.5996304
284,-42.96875,-214.35546875,225.09765625,-20.01953125,1758423572.5808191,1758423572.6035366
285,-38.0859375,-250.48828125,273.92578125,-29.296875,1758423572.584438,1758423572.6074429
286,-42.48046875,-317.3828125,109.375,-26.3671875,1758423572.5880568,1758423572.611349
287,-45.8984375,-266.6015625,129.39453125,-33.203125,1758423572.5916755,1758423572.6152554
288,-37.59765625,-245.60546875,194.82421875,-38.57421875,1758423572.5954463,1758423572.6191616
289,-32.2265625,-276.3671875,160.64453125,-38.0859375,1758423572.599217,1758423572.6230679
290,-37.109375,-288.57421875,94.23828125,-40.0390625,1758423572.6029878,1758423572.626974
291,-32.71484375,-223.14453125,174.8046875,-35.64453125,1758423572.6067586,1758423572.6308804
292,-40.0390625,-250.48828125,171.38671875,-44.43359375,1758423572.6105292,1758423572.6347866
293,-45.41015625,-269.04296875,118.65234375,-41.9921875,1758423572.6143,1758423572.6386929
294,-35.64453125,-285.64453125,49.31640625,-28.3203125,1758423572.6180708,1758423572.642599
295,-41.015625,-215.33203125,115.234375,-36.1328125,1758423572.6218414,1758423572.6465054
296,-45.41015625,-131.8359375,297.36328125,-45.41015625,1758423572.6256123,1758423572.6504116
297,-45.8984375,-230.46875,184.5703125,-49.8046875,1758423572.629383,1758423572.6543179
298,-41.015625,-200.1953125,137.6953125,-47.36328125,1758423572.6331537,1758423572.658224
299,-36.62109375,-124.51171875,236.328125,-40.52734375,1758423572.6369245,1758423572.6621304
300,-22.94921875,-154.296875,244.62890625,-29.78515625,1758423572.641858,1758423572.6660366
301,-25.390625,-191.40625,152.34375,-22.94921875,1758423572.6467917,1758423572.6699429
302,-49.31640625,-173.33984375,147.94921875,-41.9921875,1758423572.6517253,1758423572.673849
303,-58.59375,-125.48828125,229.00390625,-56.15234375,1758423572.656659,1758423572.6777554
304,-58.10546875,-146.97265625,192.87109375,-46.38671875,1758423572.6615925,1758423572.6816616
305,-55.6640625,-199.21875,98.6328125,-41.50390625,1758423572.6665263,1758423572.6855679
306,-46.38671875,-116.69921875,141.6015625,-41.9921875,1758423572.67146,1758423572.689474
307,-52.734375,-4.8828125,314.94140625,-39.0625,1758423572.6763935,1758423572.6933804
308,-63.96484375,-76.171875,260.7421875,-47.36328125,1758423572.681327,1758423572.6972866
309,-56.640625,-139.6484375,93.75,-53.22265625,1758423572.6862607,1758423572.7011929
310,-53.22265625,-74.21875,134.27734375,-52.734375,1758423572.6911943,1758423572.705099
311,-47.8515625,-6.8359375,231.93359375,-54.6875,1758423572.696128,1758423572.7090054
312,-50.29296875,-55.6640625,152.83203125,-50.78125,1758423572.6999261,1758423572.7129116
313,-44.921875,-63.96484375,71.2890625,-45.8984375,1758423572.7037241,1758423572.7168179
314,-40.52734375,7.32421875,130.37109375,-48.828125,1758423572.7075224,1758423572.720724
315,-47.36328125,19.04296875,174.31640625,-56.15234375,1758423572.7113204,1758423572.7246304
316,-47.36328125,-35.15625,84.47265625,-50.29296875,1758423572.7151186,1758423572.7285366
317,-52.24609375,-47.36328125,-0.48828125,-48.33984375,1758423572.718917,1758423572.7324429
318,-57.6171875,30.2734375,80.078125,-50.78125,1758423572.722715,1758423572.736349
319,-50.29296875,60.546875,164.0625,-48.33984375,1758423572.7265131,1758423572.7402554
320,-46.875,8.7890625,77.63671875,-47.8515625,1758423572.7303112,1758423572.7441616
321,-45.8984375,13.18359375,-26.3671875,-39.55078125,1758423572.7341094,1758423572.7480679
322,-41.9921875,125.0,111.81640625,-39.0625,1758423572.7379074,1758423572.751974
323,-36.1328125,78.61328125,162.59765625,-40.0390625,1758423572.7417057,1758423572.7558804
324,-38.57421875,17.578125,26.3671875,-41.9921875,1758423572.7454636,1758423572.7597866
325,-44.921875,106.93359375,101.07421875,-44.43359375,1758423572.7492213,1758423572.7636929
326,-43.9453125,155.2734375,213.8671875,-41.015625,1758423572.7529793,1758423572.767599
327,-39.55078125,112.79296875,173.33984375,-39.0625,1758423572.7567372,1758423572.7715054
328,-40.0390625,58.10546875,93.26171875,-39.55078125,1758423572.7604952,1758423572.7754116
329,-39.55078125,45.41015625,63.4765625,-45.8984375,1758423572.7642531,1758423572.7793179
330,-44.921875,122.0703125,175.78125,-50.78125,1758423572.7680109,1758423572.783224
331,-50.29296875,132.8125,231.93359375,-47.36328125,1758423572.7717688,1758423572.7871304
332,-43.9453125,22.4609375,81.0546875,-40.52734375,1758423572.7755268,1758423572.7910366
333,-38.57421875,42.48046875,90.33203125,-40.52734375,1758423572.7792845,1758423572.7949429
334,-36.62109375,139.16015625,248.046875,-46.875,1758423572.7830424,1758423572.798849
335,-45.41015625,72.265625,176.26953125,-51.7578125,1758423572.7868004,1758423572.8027554
336,-40.0390625,62.01171875,114.2578125,-48.33984375,1758423572.7906816,1758423572.8066616
337,-22.94921875,94.7265625,136.71875,-28.3203125,1758423572.7945628,1758423572.8105679
338,-22.4609375,76.171875,128.41796875,-31.73828125,1758423572.798444,1758423572.814474
339,-31.25,62.01171875,123.046875,-44.921875,1758423572.8023252,1758423572.8183804
340,-26.85546875,26.85546875,54.6875,-37.59765625,1758423572.8062065,1758423572.8222866
341,-25.87890625,58.10546875,66.89453125,-37.59765625,1758423572.8100877,1758423572.8261929
342,-40.0390625,94.7265625,163.57421875,-44.43359375,1758423572.8139691,1758423572.830099
343,-44.921875,43.45703125,134.765625,-46.875,1758423572.8178504,1758423572.8340054
344,-40.52734375,-33.203125,-20.01953125,-45.8984375,1758423572.8217316,1758423572.8379116
345,-41.9921875,54.6875,90.33203125,-48.828125,1758423572.8256128,1758423572.8418179
346,-46.38671875,41.9921875,191.89453125,-53.7109375,1758423572.829494,1758423572.845724
347,-49.31640625,-46.875,31.25,-50.29296875,1758423572.8333752,1758423572.8496304
348,-39.0625,13.671875,103.02734375,-44.43359375,1758423572.8369665,1758423572.8535366
349,-51.7578125,28.3203125,171.875,-38.57421875,1758423572.8405578,1758423572.8574429
350,-62.01171875,-4.8828125,123.046875,-39.55078125,1758423572.844149,1758423572.861349
351,-52.734375,-42.96875,61.5234375,-40.0390625,1758423572.8477402,1758423572.8652554
352,-48.828125,-53.7109375,56.15234375,-37.109375,1758423572.8513315,1758423572.8691616
353,-38.0859375,-19.53125,112.3046875,-33.69140625,1758423572.8549228,1758423572.8730679
354,-42.96875,9.765625,143.5546875,-28.80859375,1758423572.858514,1758423572.876974
355,-48.828125,-61.5234375,100.09765625,-40.52734375,1758423572.8621054,1758423572.8808804
356,-45.41015625,-83.49609375,13.671875,-40.0390625,1758423572.8656964,1758423572.8847866
357,-48.828125,73.73046875,211.42578125,-32.2265625,1758423572.8692877,1758423572.8886929
358,-49.8046875,19.04296875,264.16015625,-28.3203125,1758423572.872879,1758423572.892599
