TP9,AF7,AF8,TP10,board_ts,unix_ts
-28.3203125,-82.03125,308.59375,-22.94921875,1758405222.0303466,1758405222.0542822
-23.92578125,168.45703125,521.97265625,-20.5078125,1758405222.03413,1758405222.0581884
-22.94921875,311.5234375,548.828125,-19.53125,1758405222.0379138,1758405222.0620947
-13.671875,-8.7890625,289.0625,-3.41796875,1758405222.0416973,1758405222.066001
-21.484375,-300.29296875,173.828125,1.953125,1758405222.0454807,1758405222.0699072
-32.71484375,-184.5703125,336.9140625,-8.7890625,1758405222.0492642,1758405222.0738134
-34.66796875,74.70703125,519.04296875,-19.04296875,1758405222.0530477,1758405222.0777197
-34.66796875,-87.890625,361.328125,-21.484375,1758405222.0568311,1758405222.081626
-29.78515625,-901.3671875,-284.1796875,-8.7890625,1758405222.0606146,1758405222.0855322
-18.5546875,-203.125,364.2578125,-10.25390625,1758405222.0643983,1758405222.0894384
-13.671875,552.24609375,941.89453125,-20.5078125,1758405222.0681818,1758405222.0933447
-31.25,132.32421875,507.32421875,-30.76171875,1758405222.0719652,1758405222.097251
-39.0625,126.953125,462.40234375,-41.50390625,1758405222.0757203,1758405222.1011572
-31.25,519.53125,725.09765625,-39.0625,1758405222.0794752,1758405222.1050634
-22.94921875,506.8359375,667.96875,-31.73828125,1758405222.08323,1758405222.1089697
-28.80859375,213.8671875,422.36328125,-22.94921875,1758405222.086985,1758405222.112876
-29.296875,229.98046875,419.921875,-25.390625,1758405222.0907402,1758405222.1167822
-20.5078125,156.25,390.625,-34.66796875,1758405222.094495,1758405222.1206884
-11.71875,46.875,372.0703125,-23.4375,1758405222.09825,1758405222.1245947
-12.6953125,-471.6796875,11.23046875,-13.18359375,1758405222.102005,1758405222.128501
-20.99609375,-389.16015625,109.375,-18.06640625,1758405222.10576,1758405222.1324072
-15.13671875,474.12109375,689.94140625,-24.90234375,1758405222.109515,1758405222.1363134
-8.7890625,194.3359375,413.57421875,-17.08984375,1758405222.1132698,1758405222.1402197
-25.390625,-100.09765625,224.609375,-16.6015625,1758405222.117025,1758405222.144126
-30.76171875,247.0703125,468.26171875,-26.85546875,1758405222.1207697,1758405222.1480322
-23.92578125,574.70703125,631.8359375,-28.3203125,1758405222.1245146,1758405222.1519384
-19.04296875,293.9453125,326.171875,-15.625,1758405222.1282594,1758405222.1558447
-12.20703125,134.27734375,187.01171875,-13.671875,1758405222.1320043,1758405222.159751
-14.6484375,378.90625,380.859375,-19.53125,1758405222.135749,1758405222.1636572
-14.16015625,171.875,250.9765625,-19.04296875,1758405222.139494,1758405222.1675634
-9.27734375,-253.90625,-7.8125,-17.578125,1758405222.1432385,1758405222.1714697
-11.23046875,-548.828125,-165.52734375,-13.18359375,1758405222.1469834,1758405222.175376
-16.6015625,94.7265625,354.00390625,-21.97265625,1758405222.1507282,1758405222.1792822
-11.23046875,526.85546875,593.75,-27.34375,1758405222.154473,1758405222.1831884
-7.32421875,190.91796875,311.5234375,-28.80859375,1758405222.158218,1758405222.1870947
-7.8125,182.12890625,313.96484375,-24.4140625,1758405222.1619627,1758405222.191001
-10.25390625,212.890625,285.15625,-18.06640625,1758405222.1658218,1758405222.1949072
-20.01953125,263.18359375,277.83203125,-17.578125,1758405222.1696806,1758405222.1988134
-22.94921875,-62.98828125,38.57421875,-9.765625,1758405222.1735396,1758405222.2027197
-19.53125,-146.97265625,55.17578125,-15.625,1758405222.1773987,1758405222.206626
-21.484375,328.61328125,365.234375,-22.4609375,1758405222.1812575,1758405222.2105322
-22.4609375,97.65625,170.8984375,-20.01953125,1758405222.1851165,1758405222.2144384
-10.25390625,-600.09765625,-274.90234375,-8.30078125,1758405222.1889756,1758405222.2183447
-4.8828125,-479.4921875,-83.49609375,2.44140625,1758405222.1928344,1758405222.222251
-1.46484375,403.3203125,613.28125,-6.8359375,1758405222.1966934,1758405222.2261572
0.48828125,357.91015625,437.5,-12.20703125,1758405222.2005525,1758405222.2300634
-3.41796875,42.48046875,202.63671875,-12.20703125,1758405222.2044113,1758405222.2339697
-10.25390625,123.53515625,281.73828125,-13.671875,1758405222.2082703,1758405222.237876
-13.671875,451.66015625,463.8671875,-10.25390625,1758405222.2130723,1758405222.2417822
-9.27734375,267.578125,290.0390625,-0.9765625,1758405222.2178743,1758405222.2456884
2.44140625,-145.01953125,10.25390625,2.9296875,1758405222.2226763,1758405222.2495947
0.9765625,21.97265625,206.0546875,-2.44140625,1758405222.2274783,1758405222.253501
-7.32421875,354.00390625,469.23828125,-3.90625,1758405222.2322803,1758405222.2574072
-9.27734375,-5.37109375,197.75390625,-8.30078125,1758405222.237082,1758405222.2613134
-4.8828125,-871.58203125,-483.3984375,1.953125,1758405222.241884,1758405222.2652197
-8.7890625,-359.86328125,6.8359375,0.9765625,1758405222.246686,1758405222.269126
-15.625,567.3828125,788.0859375,-11.23046875,1758405222.251488,1758405222.2730322
-14.16015625,257.32421875,442.87109375,-14.6484375,1758405222.25629,1758405222.2769384
-13.18359375,215.33203125,431.15234375,-20.99609375,1758405222.261092,1758405222.2808447
-24.4140625,548.33984375,678.7109375,-24.90234375,1758405222.265894,1758405222.284751
-26.85546875,547.36328125,581.54296875,-31.25,1758405222.2696972,1758405222.2886572
-27.83203125,243.65234375,355.46875,-30.2734375,1758405222.2735007,1758405222.2925634
-32.2265625,196.2890625,331.54296875,-36.62109375,1758405222.2773042,1758405222.2964697
-23.92578125,447.75390625,448.2421875,-38.57421875,1758405222.2811074,1758405222.300376
-13.671875,439.453125,436.5234375,-32.71484375,1758405222.2849107,1758405222.3042822
-19.53125,-14.16015625,171.38671875,-26.85546875,1758405222.2887142,1758405222.3081884
-27.83203125,-340.33203125,-5.859375,-13.18359375,1758405222.2925177,1758405222.3120947
-25.87890625,12.6953125,303.22265625,-16.6015625,1758405222.296321,1758405222.316001
-21.97265625,398.4375,591.796875,-27.83203125,1758405222.3001242,1758405222.3199072
-11.23046875,-426.26953125,-93.26171875,-22.94921875,1758405222.3039277,1758405222.3238134
-16.6015625,-584.47265625,-130.859375,-22.94921875,1758405222.3077312,1758405222.3277197
-21.484375,449.70703125,741.69921875,-31.73828125,1758405222.3115344,1758405222.331626
-15.625,369.140625,556.15234375,-26.85546875,1758405222.3153024,1758405222.3355322
-22.4609375,117.67578125,333.984375,-28.80859375,1758405222.3190706,1758405222.3394384
-31.73828125,366.69921875,505.37109375,-25.390625,1758405222.3228385,1758405222.3433447
-32.71484375,572.265625,567.87109375,-21.97265625,1758405222.3266068,1758405222.347251
-34.66796875,307.12890625,312.5,-31.73828125,1758405222.3303747,1758405222.3511572
-18.5546875,-175.78125,18.06640625,-21.97265625,1758405222.3341427,1758405222.3550634
-7.32421875,42.48046875,246.58203125,-11.71875,1758405222.337911,1758405222.3589697
-6.8359375,287.59765625,384.27734375,-25.87890625,1758405222.3416789,1758405222.362876
-6.8359375,-188.4765625,31.25,-26.3671875,1758405222.345447,1758405222.3667822
-10.25390625,-838.37890625,-417.48046875,-15.625,1758405222.349215,1758405222.3706884
-17.578125,-130.859375,237.79296875,-26.85546875,1758405222.3529832,1758405222.3745947
-25.87890625,549.8046875,744.140625,-34.66796875,1758405222.3567512,1758405222.378501
-28.80859375,160.64453125,329.1015625,-27.34375,1758405222.3605218,1758405222.3824072
-24.4140625,215.33203125,354.98046875,-21.484375,1758405222.3642924,1758405222.3863134
-19.04296875,521.97265625,569.82421875,-17.08984375,1758405222.368063,1758405222.3902197
-23.92578125,495.60546875,490.72265625,-13.671875,1758405222.3718333,1758405222.394126
-18.5546875,13.671875,111.81640625,-13.18359375,1758405222.375604,1758405222.3980322
-10.7421875,-272.94921875,-58.59375,-12.6953125,1758405222.3793745,1758405222.4019384
-11.23046875,-12.6953125,185.05859375,-16.6015625,1758405222.383145,1758405222.4058447
-20.99609375,285.15625,406.73828125,-24.4140625,1758405222.3869157,1758405222.409751
-21.97265625,-384.765625,-140.625,-23.4375,1758405222.390686,1758405222.4136572
-18.06640625,-504.39453125,-180.6640625,-19.04296875,1758405222.3944566,1758405222.4175634
-22.4609375,201.171875,410.64453125,-18.06640625,1758405222.3982272,1758405222.4214697
-20.5078125,131.34765625,325.1953125,-11.71875,1758405222.4019978,1758405222.425376
-17.08984375,-84.9609375,136.71875,-13.18359375,1758405222.4058535,1758405222.4292822
-19.53125,173.33984375,333.0078125,-24.90234375,1758405222.4097092,1758405222.4331884
-23.4375,530.2734375,501.953125,-37.59765625,1758405222.4135652,1758405222.4370947
-21.97265625,187.5,156.73828125,-32.71484375,1758405222.4174209,1758405222.441001
-12.6953125,-292.48046875,-149.90234375,-25.390625,1758405222.4212766,1758405222.4449072
-23.92578125,-188.96484375,-37.59765625,-30.76171875,1758405222.4251323,1758405222.4488134
-30.76171875,-113.76953125,50.29296875,-39.55078125,1758405222.428988,1758405222.4527197
-21.484375,-366.69921875,-126.46484375,-36.1328125,1758405222.4328437,1758405222.456626
-26.85546875,-624.0234375,-296.38671875,-26.85546875,1758405222.4366994,1758405222.4605322
-30.2734375,81.54296875,272.94921875,-29.78515625,1758405222.4405553,1758405222.4644384
-27.83203125,501.953125,463.37890625,-35.64453125,1758405222.444411,1758405222.4683447
-31.25,235.3515625,177.24609375,-38.57421875,1758405222.4482667,1758405222.472251
-32.71484375,13.671875,-17.08984375,-32.71484375,1758405222.453095,1758405222.4761572
-28.80859375,137.20703125,25.87890625,-38.0859375,1758405222.457923,1758405222.4800634
-27.83203125,353.02734375,158.203125,-39.55078125,1758405222.462751,1758405222.4839697
-16.6015625,-77.1484375,-150.390625,-36.62109375,1758405222.4675791,1758405222.487876
-22.4609375,-122.55859375,-192.87109375,-41.015625,1758405222.4724073,1758405222.4917822
-28.3203125,-0.48828125,-160.15625,-34.66796875,1758405222.4772353,1758405222.4956884
-19.53125,-18.06640625,-145.99609375,-24.4140625,1758405222.4820633,1758405222.4995947
-6.8359375,-489.74609375,-535.64453125,-4.8828125,1758405222.4868915,1758405222.503501
-8.30078125,-704.1015625,-720.703125,-2.44140625,1758405222.4917197,1758405222.5074072
-21.484375,247.55859375,32.71484375,-16.6015625,1758405222.4965477,1758405222.5113134
-10.25390625,303.22265625,-25.390625,-11.23046875,1758405222.5013757,1758405222.5152197
-9.27734375,41.015625,-287.109375,-10.25390625,1758405222.506204,1758405222.519126
-8.30078125,266.11328125,-168.9453125,-11.23046875,1758405222.5087357,1758405222.5230322
0.9765625,424.8046875,-165.0390625,-16.11328125,1758405222.5112674,1758405222.5269384
-3.90625,59.5703125,-485.3515625,-11.23046875,1758405222.5137992,1758405222.5308447
-4.8828125,-245.60546875,-630.859375,-8.30078125,1758405222.5163312,1758405222.534751
-6.34765625,143.06640625,-356.4453125,-15.625,1758405222.518863,1758405222.5386572
-9.765625,75.68359375,-485.3515625,-13.18359375,1758405222.5213947,1758405222.5425634
-4.8828125,-424.8046875,-794.921875,-13.18359375,1758405222.5239265,1758405222.5464697
-2.9296875,-624.51171875,-829.1015625,-9.765625,1758405222.5264583,1758405222.550376
-12.6953125,-49.8046875,-455.56640625,-9.765625,1758405222.5289903,1758405222.5542822
-13.671875,399.4140625,-330.078125,-16.11328125,1758405222.531522,1758405222.5581884
-10.25390625,-225.5859375,-742.1875,-13.18359375,1758405222.5340538,1758405222.5620947
-7.8125,-613.28125,-816.40625,-5.37109375,1758405222.5365856,1758405222.566001
-6.34765625,186.03515625,-371.58203125,-14.16015625,1758405222.5403643,1758405222.5699072
-8.30078125,398.92578125,-421.38671875,-20.99609375,1758405222.544143,1758405222.5738134
-14.16015625,13.671875,-770.99609375,-16.11328125,1758405222.5479217,1758405222.5777197
-20.99609375,110.3515625,-683.10546875,-25.87890625,1758405222.5517004,1758405222.581626
-23.4375,312.5,-576.171875,-30.2734375,1758405222.555479,1758405222.5855322
-15.625,53.22265625,-853.515625,-16.11328125,1758405222.5592577,1758405222.5894384
-15.625,-600.5859375,-1000.0,-7.32421875,1758405222.5630364,1758405222.5933447
-21.484375,-791.50390625,-908.69140625,-8.7890625,1758405222.5668151,1758405222.597251
-22.4609375,106.93359375,-508.30078125,-18.06640625,1758405222.5705938,1758405222.6011572
-13.671875,242.67578125,-532.71484375,-22.4609375,1758405222.5743725,1758405222.6050634
-7.32421875,-19.53125,-750.9765625,-19.53125,1758405222.5781512,1758405222.6089697
-18.5546875,232.91015625,-623.53515625,-27.34375,1758405222.58193,1758405222.612876
-20.01953125,461.9140625,-520.99609375,-33.203125,1758405222.586881,1758405222.6167822
-10.7421875,219.7265625,-699.21875,-26.85546875,1758405222.5918322,1758405222.6206884
-16.6015625,1.953125,-867.1875,-31.25,1758405222.5967832,1758405222.6245947
-27.83203125,274.4140625,-708.49609375,-34.1796875,1758405222.6017344,1758405222.628501
-20.99609375,395.99609375,-646.484375,-29.296875,1758405222.6066854,1758405222.6324072
-10.25390625,-100.09765625,-872.55859375,-27.83203125,1758405222.6116366,1758405222.6363134
-22.94921875,-625.0,-917.96875,-29.296875,1758405222.6165876,1758405222.6402197
-30.76171875,-209.47265625,-641.6015625,-35.15625,1758405222.6215386,1758405222.644126
-24.4140625,237.79296875,-452.1484375,-34.1796875,1758405222.6264899,1758405222.6480322
-34.66796875,-46.38671875,-616.69921875,-27.83203125,1758405222.6314409,1758405222.6519384
-40.0390625,-277.83203125,-728.515625,-24.4140625,1758405222.636392,1758405222.6558447
-38.0859375,209.9609375,-380.859375,-29.78515625,1758405222.641343,1758405222.659751
-37.59765625,395.99609375,-293.9453125,-31.73828125,1758405222.6451302,1758405222.6636572
-34.66796875,157.2265625,-458.984375,-30.76171875,1758405222.6489172,1758405222.6675634
-26.85546875,197.265625,-402.34375,-35.15625,1758405222.652704,1758405222.6714697
-20.01953125,521.97265625,-198.2421875,-35.15625,1758405222.656491,1758405222.675376
-22.4609375,450.68359375,-319.82421875,-35.15625,1758405222.660278,1758405222.6792822
-37.59765625,-34.66796875,-676.7578125,-38.57421875,1758405222.664065,1758405222.6831884
-41.9921875,-71.77734375,-639.6484375,-35.64453125,1758405222.667852,1758405222.6870947
-35.15625,406.25,-291.015625,-31.73828125,1758405222.671639,1758405222.691001
-38.57421875,406.73828125,-352.5390625,-32.71484375,1758405222.675426,1758405222.6949072
-50.29296875,-308.59375,-781.25,-29.78515625,1758405222.679213,1758405222.6988134
-46.875,-410.15625,-769.04296875,-38.0859375,1758405222.6829998,1758405222.7027197
-29.78515625,358.88671875,-267.08984375,-46.875,1758405222.686787,1758405222.706626
-32.71484375,401.85546875,-351.07421875,-40.52734375,1758405222.690594,1758405222.7105322
-44.921875,-67.3828125,-746.09375,-38.0859375,1758405222.694401,1758405222.7144384
-35.15625,169.921875,-586.42578125,-40.0390625,1758405222.698208,1758405222.7183447
-3.41796875,544.43359375,-387.20703125,-26.85546875,1758405222.7020152,1758405222.722251
6.8359375,264.6484375,-623.046875,-4.8828125,1758405222.7058222,1758405222.7261572
-20.01953125,-203.125,-988.28125,-21.484375,1758405222.7096295,1758405222.7300634
-52.24609375,-49.31640625,-873.046875,-51.26953125,1758405222.7134366,1758405222.7339697
-52.24609375,399.4140625,-647.94921875,-44.921875,1758405222.7172437,1758405222.737876
-38.0859375,-185.05859375,-900.390625,-34.66796875,1758405222.7210507,1758405222.7417822
-37.59765625,-675.78125,-894.04296875,-44.921875,1758405222.7248578,1758405222.7456884
-46.38671875,208.49609375,-494.140625,-58.59375,1758405222.7286649,1758405222.7495947
-37.109375,586.9140625,-487.79296875,-50.29296875,1758405222.732472,1758405222.753501
-29.78515625,47.8515625,-833.984375,-39.55078125,1758405222.7361777,1758405222.7574072
-38.0859375,-66.40625,-946.2890625,-42.96875,1758405222.7398834,1758405222.7613134
-40.52734375,347.65625,-787.59765625,-38.57421875,1758405222.743589,1758405222.7652197
-33.69140625,395.99609375,-821.77734375,-23.92578125,1758405222.7472947,1758405222.769126
-30.76171875,-30.2734375,-945.80078125,-27.34375,1758405222.7510004,1758405222.7730322
-44.921875,-330.56640625,-1000.0,-36.62109375,1758405222.754706,1758405222.7769384
-51.7578125,7.8125,-939.94140625,-35.15625,1758405222.7584116,1758405222.7808447
-47.8515625,370.60546875,-830.56640625,-33.203125,1758405222.7621174,1758405222.784751
-47.36328125,-398.92578125,-976.5625,-21.484375,1758405222.7658231,1758405222.7886572
-44.921875,-621.09375,-913.57421875,-19.04296875,1758405222.7695289,1758405222.7925634
-28.80859375,376.46484375,-620.60546875,-25.87890625,1758405222.7732344,1758405222.7964697
-27.83203125,328.61328125,-740.72265625,-23.4375,1758405222.77694,1758405222.800376
-30.2734375,108.88671875,-916.015625,-22.94921875,1758405222.7806582,1758405222.8042822
-22.94921875,374.0234375,-757.32421875,-28.3203125,1758405222.7843764,1758405222.8081884
-26.85546875,457.03125,-788.57421875,-27.83203125,1758405222.7880945,1758405222.8120947
-26.3671875,-16.11328125,-997.0703125,-21.484375,1758405222.7918127,1758405222.816001
-22.4609375,-300.78125,-913.0859375,-24.4140625,1758405222.7955308,1758405222.8199072
-16.6015625,-93.75,-865.72265625,-27.83203125,1758405222.7992487,1758405222.8238134
-14.6484375,232.421875,-816.89453125,-27.34375,1758405222.8029668,1758405222.8277197
-15.13671875,59.5703125,-832.51953125,-24.4140625,1758405222.806685,1758405222.831626
-12.6953125,-557.12890625,-948.2421875,-6.34765625,1758405222.810403,1758405222.8355322
-16.11328125,113.76953125,-603.02734375,-3.41796875,1758405222.8141212,1758405222.8394384
-16.6015625,590.8203125,-461.9140625,-12.20703125,1758405222.8178394,1758405222.8433447
-17.08984375,205.56640625,-754.8828125,-19.53125,1758405222.8215575,1758405222.847251
-24.4140625,170.8984375,-782.71484375,-27.34375,1758405222.825338,1758405222.8511572
-22.4609375,447.265625,-607.421875,-25.87890625,1758405222.8291183,1758405222.8550634
-24.90234375,404.78515625,-646.484375,-17.08984375,1758405222.8328986,1758405222.8589697
-33.203125,118.1640625,-790.52734375,-21.484375,1758405222.836679,1758405222.862876
-36.1328125,78.125,-780.76171875,-26.85546875,1758405222.8404593,1758405222.8667822
-26.85546875,17.08984375,-755.37109375,-15.13671875,1758405222.8442397,1758405222.8706884
-22.94921875,-43.45703125,-741.69921875,-13.18359375,1758405222.8480203,1758405222.8745947
-25.390625,-563.96484375,-887.20703125,-11.71875,1758405222.8518007,1758405222.878501
-25.390625,-727.5390625,-818.359375,-8.7890625,1758405222.855581,1758405222.8824072
-26.3671875,270.99609375,-192.3828125,-28.80859375,1758405222.8593614,1758405222.8863134
-19.04296875,421.38671875,-129.8828125,-28.3203125,1758405222.8631418,1758405222.8902197
-16.11328125,120.1171875,-368.65234375,-14.6484375,1758405222.8669221,1758405222.894126
-19.04296875,305.6640625,-249.51171875,-20.01953125,1758405222.870674,1758405222.8980322
-17.08984375,498.53515625,-108.88671875,-18.5546875,1758405222.8744256,1758405222.9019384
-12.6953125,244.140625,-242.1875,-12.20703125,1758405222.8781774,1758405222.9058447
-5.37109375,65.91796875,-285.15625,-17.08984375,1758405222.8819292,1758405222.909751
0.48828125,284.66796875,-85.44921875,-16.6015625,1758405222.885681,1758405222.9136572
-6.34765625,135.7421875,-142.08984375,-19.53125,1758405222.889433,1758405222.9175634
-5.859375,-248.046875,-357.421875,-15.625,1758405222.8931847,1758405222.9214697
1.953125,-706.0546875,-619.140625,-10.7421875,1758405222.8969364,1758405222.925376
-6.34765625,-266.6015625,-145.99609375,-17.578125,1758405222.9006882,1758405222.9292822
-12.20703125,474.12109375,428.22265625,-21.97265625,1758405222.90444,1758405222.9331884
-1.953125,3.90625,31.73828125,-12.6953125,1758405222.9081917,1758405222.9370947
24.4140625,-230.46875,-61.5234375,13.18359375,1758405222.9119434,1758405222.941001
2.9296875,413.0859375,500.9765625,-16.6015625,1758405222.9156907,1758405222.9449072
-45.41015625,441.40625,490.234375,-62.01171875,1758405222.919438,1758405222.9488134
-36.1328125,117.67578125,250.48828125,-47.8515625,1758405222.923185,1758405222.9527197
-25.87890625,195.80078125,383.30078125,-45.8984375,1758405222.9269323,1758405222.956626
-36.1328125,397.4609375,546.38671875,-57.12890625,1758405222.9306796,1758405222.9605322
-39.55078125,147.4609375,426.26953125,-52.734375,1758405222.9344268,1758405222.9644384
-41.9921875,-566.40625,-9.27734375,-44.43359375,1758405222.9381742,1758405222.9683447
-38.57421875,-500.48828125,165.52734375,-43.9453125,1758405222.9419215,1758405222.972251
-36.62109375,409.66796875,958.49609375,-59.5703125,1758405222.9456687,1758405222.9761572
-38.57421875,372.0703125,905.76171875,-53.7109375,1758405222.949416,1758405222.9800634
-36.62109375,-82.03125,590.8203125,-41.50390625,1758405222.9531631,1758405222.9839697
-35.64453125,72.265625,761.23046875,-35.15625,1758405222.9569104,1758405222.987876
-31.73828125,491.2109375,999.51171875,-28.3203125,1758405222.9618568,1758405222.9917822
-21.97265625,270.01953125,875.0,-26.3671875,1758405222.9668036,1758405222.9956884
-24.4140625,-205.078125,615.234375,-22.94921875,1758405222.97175,1758405222.9995947
-20.5078125,126.953125,845.703125,-19.53125,1758405222.9766965,1758405223.003501
-19.04296875,454.1015625,999.51171875,-21.97265625,1758405222.981643,1758405223.0074072
-26.85546875,-76.171875,751.953125,-22.4609375,1758405222.9865894,1758405223.0113134
-18.5546875,-619.62890625,462.890625,-10.7421875,1758405222.9915361,1758405223.0152197
-13.18359375,-43.45703125,864.2578125,-17.578125,1758405222.9964826,1758405223.019126
-18.06640625,528.3203125,999.51171875,-21.484375,1758405223.001429,1758405223.0230322
-15.625,219.23828125,892.578125,-15.625,1758405223.0063758,1758405223.0269384
-15.13671875,141.11328125,920.8984375,-18.06640625,1758405223.0113223,1758405223.0308447
-11.23046875,470.703125,975.09765625,-10.25390625,1758405223.0162687,1758405223.034751
-0.9765625,398.4375,999.51171875,-13.18359375,1758405223.0199568,1758405223.0386572
5.859375,-233.3984375,740.234375,-3.41796875,1758405223.023645,1758405223.0425634
-4.8828125,-193.84765625,731.4453125,-0.48828125,1758405223.027333,1758405223.0464697
-10.25390625,395.01953125,999.51171875,-5.859375,1758405223.031021,1758405223.050376
2.44140625,395.5078125,993.1640625,0.0,1758405223.0347092,1758405223.0542822
6.34765625,-18.06640625,820.3125,8.7890625,1758405223.0383973,1758405223.0581884
-5.37109375,-193.84765625,776.85546875,10.25390625,1758405223.0420854,1758405223.0620947
-1.953125,270.01953125,982.421875,2.44140625,1758405223.0457735,1758405223.066001
-0.9765625,406.25,999.51171875,-10.7421875,1758405223.0494616,1758405223.0699072
-10.25390625,-257.8125,661.1328125,-18.06640625,1758405223.0531497,1758405223.0738134
-16.6015625,-272.94921875,715.8203125,-17.08984375,1758405223.0568378,1758405223.0777197
-19.04296875,299.8046875,999.51171875,-15.13671875,1758405223.060526,1758405223.081626
-10.7421875,236.81640625,933.59375,-10.25390625,1758405223.0655067,1758405223.0855322
-11.23046875,69.82421875,894.53125,-9.27734375,1758405223.0704873,1758405223.0894384
-16.6015625,282.71484375,958.0078125,-3.41796875,1758405223.075468,1758405223.0933447
-15.13671875,200.1953125,936.5234375,-0.48828125,1758405223.0804486,1758405223.097251
-12.20703125,-116.69921875,773.92578125,-1.46484375,1758405223.0854294,1758405223.1011572
-8.30078125,-653.80859375,425.29296875,-3.41796875,1758405223.0904102,1758405223.1050634
-15.625,-327.1484375,688.4765625,-8.7890625,1758405223.0953908,1758405223.1089697
-13.18359375,490.72265625,999.51171875,-11.23046875,1758405223.1003716,1758405223.112876
-4.39453125,59.5703125,783.69140625,-8.30078125,1758405223.1053522,1758405223.1167822
7.8125,-300.78125,666.50390625,0.9765625,1758405223.110333,1758405223.1206884
10.25390625,304.6875,973.14453125,-2.9296875,1758405223.1153135,1758405223.1245947
-0.9765625,501.953125,999.51171875,-5.37109375,1758405223.1202943,1758405223.128501
-0.9765625,-20.01953125,734.375,-5.859375,1758405223.1228986,1758405223.1324072
3.41796875,-102.5390625,715.33203125,-11.23046875,1758405223.125503,1758405223.1363134
3.90625,378.90625,999.51171875,-1.46484375,1758405223.1281075,1758405223.1402197
1.953125,358.3984375,977.05078125,-3.41796875,1758405223.1307118,1758405223.144126
8.30078125,10.25390625,750.48828125,-6.8359375,1758405223.133316,1758405223.1480322
11.71875,-199.70703125,625.48828125,2.9296875,1758405223.1359205,1758405223.1519384
9.27734375,-110.83984375,725.09765625,-4.8828125,1758405223.138525,1758405223.1558447
11.71875,-34.1796875,781.73828125,-6.8359375,1758405223.1411293,1758405223.159751
9.27734375,-500.0,442.3828125,0.9765625,1758405223.1437335,1758405223.1636572
1.953125,-417.48046875,554.19921875,-1.953125,1758405223.146338,1758405223.1675634
4.8828125,385.7421875,999.51171875,-3.90625,1758405223.1489425,1758405223.1714697
7.32421875,415.52734375,986.328125,2.9296875,1758405223.1515467,1758405223.175376
7.8125,-409.1796875,473.14453125,16.6015625,1758405223.1553383,1758405223.1792822
4.39453125,-335.9375,565.4296875,15.13671875,1758405223.1591296,1758405223.1831884
-2.44140625,448.2421875,999.51171875,1.953125,1758405223.1629212,1758405223.1870947
3.90625,234.375,872.55859375,5.859375,1758405223.1667125,1758405223.191001
6.34765625,61.5234375,765.625,12.6953125,1758405223.170504,1758405223.1949072
13.671875,-16.11328125,643.06640625,20.99609375,1758405223.1742954,1758405223.1988134
27.34375,-96.19140625,618.65234375,27.34375,1758405223.178087,1758405223.2027197
33.203125,-188.4765625,594.7265625,26.3671875,1758405223.1818786,1758405223.206626
23.92578125,-855.95703125,32.71484375,30.2734375,1758405223.18567,1758405223.2105322
11.71875,-339.35546875,466.796875,21.484375,1758405223.1894615,1758405223.2144384
14.16015625,428.7109375,999.51171875,18.5546875,1758405223.1932528,1758405223.2183447
25.390625,93.26171875,746.09375,31.25,1758405223.1970444,1758405223.222251
31.73828125,94.23828125,703.125,37.109375,1758405223.2007806,1758405223.2261572
25.87890625,414.55078125,850.5859375,35.64453125,1758405223.2045166,1758405223.2300634
30.76171875,357.91015625,685.546875,28.3203125,1758405223.208253,1758405223.2339697
47.8515625,54.19921875,436.5234375,33.203125,1758405223.2119892,1758405223.237876
49.31640625,5.859375,433.59375,35.15625,1758405223.2157252,1758405223.2417822
49.31640625,-153.3203125,297.36328125,40.0390625,1758405223.2194614,1758405223.2456884
46.875,-222.65625,278.80859375,51.7578125,1758405223.2231977,1758405223.2495947
56.15234375,-583.984375,29.78515625,58.59375,1758405223.2269337,1758405223.253501
73.2421875,-541.50390625,126.953125,62.98828125,1758405223.23067,1758405223.2574072
77.1484375,279.296875,751.46484375,64.94140625,1758405223.2344062,1758405223.2613134
69.3359375,104.4921875,484.86328125,68.84765625,1758405223.2381423,1758405223.2652197
70.3125,-333.0078125,191.40625,65.91796875,1758405223.2418785,1758405223.269126
90.8203125,20.99609375,518.5546875,70.3125,1758405223.245621,1758405223.2730322
91.30859375,424.8046875,742.1875,71.2890625,1758405223.2493634,1758405223.2769384
85.44921875,106.93359375,409.1796875,65.4296875,1758405223.2531056,1758405223.2808447
71.77734375,-88.8671875,269.53125,58.59375,1758405223.256848,1758405223.284751
56.640625,177.24609375,465.8203125,46.38671875,1758405223.2605906,1758405223.2886572
51.7578125,16.11328125,356.4453125,39.55078125,1758405223.264333,1758405223.2925634
39.0625,-446.77734375,53.7109375,41.015625,1758405223.2680755,1758405223.2964697
35.64453125,-710.44921875,-129.39453125,47.8515625,1758405223.271818,1758405223.300376
41.9921875,-56.640625,393.5546875,47.36328125,1758405223.2755604,1758405223.3042822
43.9453125,439.94140625,718.26171875,42.96875,1758405223.2793026,1758405223.3081884
45.41015625,86.9140625,385.7421875,36.62109375,1758405223.283045,1758405223.3120947
57.12890625,22.4609375,305.17578125,33.203125,1758405223.2867875,1758405223.316001
67.87109375,171.38671875,338.37890625,37.109375,1758405223.290658,1758405223.3199072
69.82421875,15.625,211.42578125,38.57421875,1758405223.2945285,1758405223.3238134
68.84765625,-431.640625,-82.03125,46.38671875,1758405223.298399,1758405223.3277197
65.4296875,-355.46875,4.8828125,57.12890625,1758405223.3022695,1758405223.331626
54.6875,128.41796875,331.0546875,49.31640625,1758405223.30614,1758405223.3355322
46.875,-87.890625,163.0859375,41.50390625,1758405223.3100104,1758405223.3394384
50.78125,-642.08984375,-273.92578125,55.17578125,1758405223.3138812,1758405223.3433447
47.8515625,-597.16796875,-243.1640625,57.6171875,1758405223.3177516,1758405223.347251
42.96875,203.125,432.6171875,38.0859375,1758405223.3216221,1758405223.3511572
49.8046875,157.71484375,288.57421875,38.0859375,1758405223.3254926,1758405223.3550634
52.24609375,-124.51171875,7.32421875,42.48046875,1758405223.329363,1758405223.3589697
45.8984375,93.26171875,175.29296875,35.64453125,1758405223.3332336,1758405223.362876
24.90234375,313.4765625,247.55859375,20.01953125,1758405223.3392005,1758405223.3667822
7.8125,103.02734375,34.66796875,5.37109375,1758405223.3451674,1758405223.3706884
3.41796875,-113.76953125,-95.703125,-3.90625,1758405223.3511343,1758405223.3745947
3.90625,-113.28125,-80.56640625,-2.44140625,1758405223.3571012,1758405223.378501
-2.9296875,75.1953125,37.109375,-15.625,1758405223.363068,1758405223.3824072
-1.953125,-104.4921875,-84.47265625,-16.6015625,1758405223.3690352,1758405223.3863134
6.34765625,-915.0390625,-766.6015625,-0.9765625,1758405223.3750021,1758405223.3902197
-7.8125,-509.765625,-369.62890625,-7.32421875,1758405223.380969,1758405223.394126
-1.953125,280.76171875,359.375,-13.671875,1758405223.386936,1758405223.3980322
0.9765625,-2.9296875,74.21875,-11.71875,1758405223.3929029,1758405223.4019384
-6.34765625,-60.546875,33.203125,-10.7421875,1758405223.3988698,1758405223.4058447
-5.859375,340.33203125,313.4765625,-11.23046875,1758405223.4048367,1758405223.409751
-11.71875,328.61328125,224.12109375,-18.06640625,1758405223.4074755,1758405223.4136572
-11.71875,-73.73046875,-83.984375,-13.671875,1758405223.4101145,1758405223.4175634
-6.8359375,-77.63671875,-76.171875,-20.01953125,1758405223.4127533,1758405223.4214697
-2.44140625,273.4375,119.140625,-21.484375,1758405223.4153922,1758405223.425376
-9.765625,148.92578125,4.39453125,-13.18359375,1758405223.4180312,1758405223.4292822
-20.99609375,-377.9296875,-322.75390625,-14.6484375,1758405223.42067,1758405223.4331884
-16.11328125,-525.390625,-354.98046875,-11.71875,1758405223.4233088,1758405223.4370947
-14.6484375,-152.83203125,-30.2734375,-16.6015625,1758405223.425948,1758405223.441001
-17.578125,133.7890625,115.72265625,-14.6484375,1758405223.4285867,1758405223.4449072
-9.27734375,-493.65234375,-455.078125,-5.859375,1758405223.4312255,1758405223.4488134
-9.27734375,-434.5703125,-333.984375,-11.23046875,1758405223.4338646,1758405223.4527197
-16.6015625,363.76953125,323.73046875,-13.671875,1758405223.4365034,1758405223.456626
-15.625,230.46875,78.61328125,-12.20703125,1758405223.441512,1758405223.4605322
-13.671875,-394.53125,-406.25,-16.11328125,1758405223.4465208,1758405223.4644384
-17.578125,-174.8046875,-189.453125,-20.5078125,1758405223.4515295,1758405223.4683447
-19.04296875,433.10546875,216.796875,-21.97265625,1758405223.456538,1758405223.472251
-27.34375,158.69140625,-44.921875,-25.390625,1758405223.4615467,1758405223.4761572
-39.0625,-333.0078125,-400.87890625,-23.4375,1758405223.4665554,1758405223.4800634
-37.59765625,-135.7421875,-242.1875,-18.06640625,1758405223.471564,1758405223.4839697
-27.83203125,277.83203125,3.90625,-23.92578125,1758405223.4765728,1758405223.487876
-21.484375,-214.84375,-368.65234375,-24.90234375,1758405223.4815812,1758405223.4917822
-24.4140625,-940.91796875,-907.71484375,-24.4140625,1758405223.48659,1758405223.4956884
-20.01953125,-375.9765625,-423.828125,-24.4140625,1758405223.4915986,1758405223.4995947
-15.13671875,197.75390625,67.3828125,-22.94921875,1758405223.4966073,1758405223.503501
-18.06640625,4.39453125,-141.11328125,-23.92578125,1758405223.499133,1758405223.5074072
-23.4375,96.19140625,-112.79296875,-19.53125,1758405223.501659,1758405223.5113134
-25.390625,444.3359375,103.515625,-20.99609375,1758405223.5041847,1758405223.5152197
-14.6484375,400.390625,-31.25,-19.04296875,1758405223.5067105,1758405223.519126
-8.30078125,82.03125,-289.0625,-20.01953125,1758405223.5092363,1758405223.5230322
-25.87890625,-103.02734375,-400.390625,-36.62109375,1758405223.5117621,1758405223.5269384
-31.25,20.01953125,-284.1796875,-38.57421875,1758405223.5142882,1758405223.5308447
-22.4609375,242.67578125,-102.5390625,-28.3203125,1758405223.516814,1758405223.534751
-19.53125,45.41015625,-255.37109375,-20.5078125,1758405223.5193398,1758405223.5386572
-12.20703125,132.32421875,-219.23828125,-8.7890625,1758405223.5218656,1758405223.5425634
-9.27734375,214.84375,-177.734375,-8.7890625,1758405223.5243914,1758405223.5464697
-10.7421875,-0.9765625,-283.203125,-15.625,1758405223.5269172,1758405223.550376
2.44140625,-628.90625,-741.2109375,-8.30078125,1758405223.53067,1758405223.5542822
6.34765625,-615.234375,-640.625,-7.8125,1758405223.5344226,1758405223.5581884
-13.18359375,394.04296875,186.5234375,-19.04296875,1758405223.5381753,1758405223.5620947
-22.94921875,319.3359375,18.5546875,-18.06640625,1758405223.541928,1758405223.566001
-21.484375,57.12890625,-223.14453125,-14.16015625,1758405223.5456808,1758405223.5699072
-11.71875,-36.62109375,-275.87890625,-18.06640625,1758405223.5494337,1758405223.5738134
-6.8359375,117.1875,-144.53125,-14.6484375,1758405223.5531864,1758405223.5777197
-10.25390625,3.90625,-262.6953125,-5.859375,1758405223.5569391,1758405223.581626
-11.23046875,-588.8671875,-653.80859375,-8.30078125,1758405223.5606918,1758405223.5855322
-9.27734375,36.1328125,-97.16796875,-14.16015625,1758405223.5644445,1758405223.5894384
-9.27734375,518.06640625,177.24609375,-18.06640625,1758405223.5681973,1758405223.5933447
-12.20703125,156.73828125,-164.0625,-23.92578125,1758405223.57195,1758405223.597251
-18.06640625,9.27734375,-291.015625,-22.94921875,1758405223.57582,1758405223.6011572
-18.06640625,101.07421875,-174.31640625,-26.3671875,1758405223.5796902,1758405223.6050634
-15.13671875,322.265625,10.7421875,-30.76171875,1758405223.5835602,1758405223.6089697
-14.6484375,-69.3359375,-337.890625,-30.76171875,1758405223.5874302,1758405223.612876
-13.18359375,-234.86328125,-445.80078125,-31.73828125,1758405223.5913005,1758405223.6167822
-22.4609375,10.25390625,-243.1640625,-36.62109375,1758405223.5951705,1758405223.6206884
-19.53125,-22.94921875,-218.75,-35.15625,1758405223.5990405,1758405223.6245947
-15.625,-513.671875,-568.84765625,-21.97265625,1758405223.6029108,1758405223.628501
-33.203125,-518.5546875,-525.87890625,-30.76171875,1758405223.6067808,1758405223.6324072
-38.57421875,356.93359375,113.76953125,-43.45703125,1758405223.6106508,1758405223.6363134
-34.1796875,247.0703125,-95.21484375,-41.50390625,1758405223.614521,1758405223.6402197
-33.203125,-1.46484375,-276.3671875,-45.8984375,1758405223.618391,1758405223.644126
-43.9453125,237.79296875,-151.85546875,-44.43359375,1758405223.6220293,1758405223.6480322
-44.43359375,408.203125,-146.97265625,-36.62109375,1758405223.6256676,1758405223.6519384
-30.2734375,149.4140625,-382.8125,-26.3671875,1758405223.6293058,1758405223.6558447
-28.3203125,-263.18359375,-702.1484375,-23.92578125,1758405223.632944,1758405223.659751
-30.76171875,-54.19921875,-564.94140625,-36.62109375,1758405223.6365824,1758405223.6636572
-22.94921875,-3.90625,-597.16796875,-33.69140625,1758405223.6402206,1758405223.6675634
-19.53125,-294.921875,-823.2421875,-23.92578125,1758405223.643859,1758405223.6714697
-21.97265625,-869.62890625,-1000.0,-13.671875,1758405223.6474972,1758405223.675376
-20.01953125,-436.03515625,-667.48046875,-20.01953125,1758405223.6511354,1758405223.6792822
-21.97265625,381.34765625,-232.421875,-26.85546875,1758405223.6547737,1758405223.6831884
-25.390625,47.36328125,-550.29296875,-18.5546875,1758405223.658412,1758405223.6870947
-15.13671875,-12.6953125,-636.23046875,-17.08984375,1758405223.6620502,1758405223.691001
-14.16015625,300.29296875,-456.54296875,-16.11328125,1758405223.665786,1758405223.6949072
-23.4375,298.828125,-516.6015625,-13.671875,1758405223.6695218,1758405223.6988134
-25.390625,-46.38671875,-796.875,-13.18359375,1758405223.6732574,1758405223.7027197
-23.92578125,12.6953125,-775.87890625,-20.99609375,1758405223.6769931,1758405223.706626
-22.4609375,186.5234375,-662.59765625,-23.92578125,1758405223.680729,1758405223.7105322
-23.92578125,-143.06640625,-924.8046875,-21.484375,1758405223.6844647,1758405223.7144384
-17.08984375,-696.77734375,-1000.0,-19.53125,1758405223.6882005,1758405223.7183447
-13.18359375,-710.9375,-910.64453125,-24.4140625,1758405223.6919363,1758405223.722251
-19.04296875,129.39453125,-594.7265625,-27.34375,1758405223.695672,1758405223.7261572
-10.25390625,215.33203125,-694.3359375,-26.3671875,1758405223.6994076,1758405223.7300634
-7.32421875,-305.6640625,-963.37890625,-22.94921875,1758405223.7031434,1758405223.7339697
-16.6015625,-79.1015625,-775.390625,-22.94921875,1758405223.7068791,1758405223.737876
-20.99609375,333.49609375,-728.02734375,-27.34375,1758405223.7118304,1758405223.7417822
-20.5078125,84.9609375,-923.33984375,-32.71484375,1758405223.7167816,1758405223.7456884
-18.5546875,-148.4375,-1000.0,-29.78515625,1758405223.7217326,1758405223.7495947
-19.04296875,78.61328125,-997.0703125,-26.85546875,1758405223.7266839,1758405223.753501
-11.71875,270.5078125,-985.3515625,-38.0859375,1758405223.731635,1758405223.7574072
-0.48828125,-226.07421875,-1000.0,-38.0859375,1758405223.736586,1758405223.7613134
-6.34765625,-752.9296875,-982.421875,-20.5078125,1758405223.7415373,1758405223.7652197
-19.04296875,-177.24609375,-888.671875,-24.90234375,1758405223.7464886,1758405223.769126
-16.6015625,66.40625,-949.21875,-32.2265625,1758405223.7514398,1758405223.7730322
-14.6484375,-466.30859375,-1000.0,-20.01953125,1758405223.756391,1758405223.7769384
-32.2265625,-419.43359375,-938.4765625,-20.01953125,1758405223.761342,1758405223.7808447
-42.96875,228.515625,-831.54296875,-25.87890625,1758405223.7662933,1758405223.784751
-32.2265625,375.48828125,-821.77734375,-18.5546875,1758405223.7725754,1758405223.7886572
-25.87890625,79.1015625,-931.640625,-12.6953125,1758405223.7788575,1758405223.7925634
-26.85546875,110.3515625,-886.71875,-18.5546875,1758405223.7851396,1758405223.7964697
-32.71484375,421.875,-708.0078125,-30.2734375,1758405223.7914214,1758405223.800376
-31.73828125,314.94140625,-780.76171875,-34.1796875,1758405223.7977035,1758405223.8042822
-23.92578125,-203.61328125,-966.796875,-29.78515625,1758405223.8039856,1758405223.8081884
-29.78515625,-274.4140625,-995.60546875,-28.3203125,1758405223.8102677,1758405223.8120947
-34.66796875,200.68359375,-755.859375,-30.2734375,1758405223.8165498,1758405223.816001
-24.4140625,322.265625,-643.5546875,-25.390625,1758405223.8228316,1758405223.8199072
-25.87890625,-329.58984375,-865.234375,-19.53125,1758405223.8291137,1758405223.8238134
-32.2265625,-508.7890625,-875.0,-23.92578125,1758405223.8353958,1758405223.8277197
-26.3671875,65.4296875,-593.75,-34.66796875,1758405223.841678,1758405223.831626
-31.25,144.04296875,-519.04296875,-36.62109375,1758405223.842795,1758405223.8355322
-37.109375,-209.47265625,-714.84375,-27.34375,1758405223.843912,1758405223.8394384
-37.109375,26.3671875,-498.53515625,-35.15625,1758405223.8450289,1758405223.8433447
-23.4375,385.25390625,-238.76953125,-30.76171875,1758405223.846146,1758405223.847251
-13.671875,117.67578125,-397.94921875,-18.06640625,1758405223.847263,1758405223.8511572
-26.3671875,-337.890625,-678.7109375,-30.76171875,1758405223.84838,1758405223.8550634
-28.80859375,-143.5546875,-459.47265625,-46.38671875,1758405223.849497,1758405223.8589697
-22.94921875,288.57421875,-124.51171875,-36.1328125,1758405223.850614,1758405223.862876
-24.90234375,-128.90625,-447.265625,-22.94921875,1758405223.8517313,1758405223.8667822
-29.78515625,-356.4453125,-512.6953125,-32.2265625,1758405223.8528483,1758405223.8706884
-27.34375,201.171875,-25.87890625,-31.73828125,1758405223.8539653,1758405223.8745947
-34.1796875,334.47265625,21.97265625,-33.203125,1758405223.8550823,1758405223.878501
-35.64453125,-233.88671875,-389.6484375,-34.1796875,1758405223.8590412,1758405223.8824072
-30.2734375,-479.00390625,-434.08203125,-21.484375,1758405223.863,1758405223.8863134
-25.390625,169.43359375,141.6015625,-15.13671875,1758405223.8669589,1758405223.8902197
-25.87890625,377.44140625,267.08984375,-23.92578125,1758405223.8709178,1758405223.894126
-27.34375,-283.69140625,-273.92578125,-22.4609375,1758405223.8748767,1758405223.8980322
-26.3671875,-1000.0,-1000.0,-9.765625,1758405223.8788357,1758405223.9019384
-38.57421875,-536.1328125,-355.46875,-24.4140625,1758405223.8827944,1758405223.9058447
-38.57421875,243.1640625,500.9765625,-35.15625,1758405223.8867533,1758405223.909751
-27.34375,69.82421875,326.171875,-31.25,1758405223.8907123,1758405223.9136572
-29.78515625,190.91796875,401.85546875,-32.2265625,1758405223.894671,1758405223.9175634
-26.3671875,390.13671875,479.98046875,-29.78515625,1758405223.89863,1758405223.9214697
-6.34765625,57.6171875,229.4921875,-28.3203125,1758405223.9025888,1758405223.925376
-6.8359375,-118.1640625,155.76171875,-25.87890625,1758405223.9062462,1758405223.9292822
-14.6484375,207.03125,432.12890625,-23.4375,1758405223.9099035,1758405223.9331884
-7.32421875,404.296875,567.87109375,-12.20703125,1758405223.9135609,1758405223.9370947
-7.8125,28.3203125,287.109375,-6.34765625,1758405223.9172182,1758405223.941001
-11.71875,-269.04296875,123.046875,-14.6484375,1758405223.9208755,1758405223.9449072
-10.7421875,-158.203125,270.99609375,-16.11328125,1758405223.924533,1758405223.9488134
-17.578125,-114.74609375,363.28125,-22.4609375,1758405223.9281905,1758405223.9527197
-16.6015625,-313.4765625,239.74609375,-22.4609375,1758405223.9318478,1758405223.956626
-4.8828125,-802.734375,-146.484375,-12.6953125,1758405223.9355052,1758405223.9605322
-8.30078125,-199.21875,439.453125,-12.20703125,1758405223.9391625,1758405223.9644384
-14.16015625,386.71875,912.59765625,-13.18359375,1758405223.9428198,1758405223.9683447
-12.6953125,30.76171875,574.70703125,-15.625,1758405223.9464772,1758405223.972251
-14.6484375,-37.59765625,518.5546875,-23.4375,1758405223.9513733,1758405223.9761572
-14.6484375,243.65234375,678.7109375,-29.78515625,1758405223.9562693,1758405223.9800634
-14.16015625,199.70703125,609.86328125,-22.4609375,1758405223.9611654,1758405223.9839697
-14.6484375,-59.08203125,436.5234375,-14.6484375,1758405223.9660614,1758405223.987876
-19.04296875,-96.19140625,468.26171875,-23.4375,1758405223.9709575,1758405223.9917822
-17.578125,-212.40234375,414.55078125,-29.78515625,1758405223.9758534,1758405223.9956884
-19.04296875,-250.9765625,463.8671875,-25.87890625,1758405223.9807496,1758405223.9995947
-11.71875,-637.6953125,134.27734375,-21.97265625,1758405223.9856458,1758405224.003501
-6.8359375,-767.08984375,19.04296875,-20.5078125,1758405223.9905417,1758405224.0074072
-17.08984375,103.515625,847.65625,-23.4375,1758405223.9954379,1758405224.0113134
-15.625,150.87890625,808.10546875,-18.5546875,1758405224.0003338,1758405224.0152197
-10.25390625,-111.328125,556.15234375,-15.13671875,1758405224.00523,1758405224.019126
-5.859375,162.109375,781.25,-13.671875,1758405224.0078688,1758405224.0230322
-3.90625,368.65234375,872.0703125,-16.11328125,1758405224.0105076,1758405224.0269384
-2.44140625,50.29296875,561.03515625,-10.7421875,1758405224.0131464,1758405224.0308447
-6.8359375,-197.75390625,354.4921875,-18.06640625,1758405224.0157855,1758405224.034751
-12.20703125,84.9609375,589.84375,-27.34375,1758405224.0184243,1758405224.0386572
-19.04296875,-52.734375,491.69921875,-21.97265625,1758405224.021063,1758405224.0425634
-8.30078125,-476.5625,183.59375,-5.37109375,1758405224.023702,1758405224.0464697
7.32421875,-611.328125,93.26171875,9.765625,1758405224.0263407,1758405224.050376
-20.99609375,-288.57421875,386.71875,-15.625,1758405224.0289798,1758405224.0542822
-27.34375,202.1484375,748.046875,-36.1328125,1758405224.0316186,1758405224.0581884
-16.11328125,-101.07421875,409.66796875,-20.99609375,1758405224.0342574,1758405224.0620947
-30.2734375,-654.78515625,-29.296875,-14.16015625,1758405224.0368962,1758405224.066001
-22.4609375,117.1875,564.453125,-22.94921875,1758405224.040656,1758405224.0699072
-9.765625,454.58984375,727.5390625,-18.5546875,1758405224.044416,1758405224.0738134
-20.01953125,43.9453125,354.4921875,-15.625,1758405224.0481756,1758405224.0777197
-22.4609375,117.67578125,357.421875,-21.97265625,1758405224.0519354,1758405224.081626
-15.625,335.44921875,429.19921875,-15.13671875,1758405224.0556953,1758405224.0855322
-11.71875,92.7734375,237.3046875,-8.7890625,1758405224.059455,1758405224.0894384
-13.671875,-562.01171875,-243.65234375,0.9765625,1758405224.0632148,1758405224.0933447
-22.94921875,-543.45703125,-190.91796875,-6.34765625,1758405224.0669746,1758405224.097251
-33.203125,325.68359375,531.73828125,-28.80859375,1758405224.0707345,1758405224.1011572
-27.83203125,368.65234375,469.7265625,-23.4375,1758405224.0744944,1758405224.1050634
-19.04296875,-47.8515625,104.00390625,-10.7421875,1758405224.078254,1758405224.1089697
-13.671875,-20.5078125,163.0859375,-7.32421875,1758405224.0820138,1758405224.112876
-18.5546875,432.12890625,520.5078125,-12.20703125,1758405224.08686,1758405224.1167822
-27.83203125,282.71484375,359.86328125,-13.671875,1758405224.0917063,1758405224.1206884
-31.73828125,-184.5703125,51.7578125,-11.23046875,1758405224.0965524,1758405224.1245947
-32.71484375,68.84765625,255.37109375,-15.625,1758405224.1013985,1758405224.128501
-26.85546875,380.859375,410.15625,-19.04296875,1758405224.1062446,1758405224.1324072
-22.4609375,-75.68359375,74.21875,-21.484375,1758405224.1110907,1758405224.1363134
-20.5078125,-664.55078125,-236.81640625,-14.16015625,1758405224.115937,1758405224.1402197
-21.484375,-132.8125,221.6796875,-18.5546875,1758405224.120783,1758405224.144126
-24.4140625,426.26953125,561.5234375,-26.3671875,1758405224.1256292,1758405224.1480322
-15.13671875,70.3125,287.59765625,-20.99609375,1758405224.1304755,1758405224.1519384
-2.44140625,0.0,196.77734375,-13.18359375,1758405224.1353216,1758405224.1558447
-4.39453125,351.07421875,474.609375,-13.18359375,1758405224.1401677,1758405224.159751
-13.18359375,326.171875,427.734375,-22.4609375,1758405224.144001,1758405224.1636572
-19.53125,-137.6953125,52.734375,-25.87890625,1758405224.1478343,1758405224.1675634
-16.6015625,-108.88671875,175.29296875,-26.3671875,1758405224.1516676,1758405224.1714697
-20.5078125,329.58984375,459.47265625,-22.94921875,1758405224.1555011,1758405224.175376
-19.53125,341.30859375,395.5078125,-24.4140625,1758405224.1593344,1758405224.1792822
-13.18359375,-442.87109375,-237.79296875,-20.01953125,1758405224.1631677,1758405224.1831884
-21.484375,-714.35546875,-383.30078125,-18.06640625,1758405224.167001,1758405224.1870947
-20.01953125,197.75390625,498.53515625,-17.578125,1758405224.1708343,1758405224.191001
-16.11328125,299.8046875,524.4140625,-10.7421875,1758405224.1746678,1758405224.1949072
-25.87890625,-57.6171875,216.796875,-12.20703125,1758405224.1785011,1758405224.1988134
-24.4140625,81.54296875,335.9375,-11.23046875,1758405224.1823344,1758405224.2027197
-13.671875,381.34765625,543.9453125,-10.25390625,1758405224.1861677,1758405224.206626
-11.23046875,158.203125,329.58984375,-3.90625,1758405224.1899557,1758405224.2105322
-15.13671875,-104.00390625,120.1171875,-4.39453125,1758405224.1937437,1758405224.2144384
-23.4375,113.76953125,295.8984375,-12.20703125,1758405224.1975317,1758405224.2183447
-20.5078125,102.5390625,266.11328125,-15.13671875,1758405224.2013197,1758405224.222251
-12.6953125,-277.83203125,7.32421875,-14.16015625,1758405224.2051077,1758405224.2261572
-15.625,-690.4296875,-281.73828125,-12.6953125,1758405224.2088957,1758405224.2300634
-18.06640625,-320.3125,115.234375,-15.13671875,1758405224.212684,1758405224.2339697
-12.6953125,363.76953125,617.67578125,-13.18359375,1758405224.216472,1758405224.237876
-8.30078125,-43.9453125,173.828125,-16.6015625,1758405224.22026,1758405224.2417822
-19.04296875,-573.73046875,-182.12890625,-20.5078125,1758405224.224048,1758405224.2456884
-26.3671875,77.1484375,327.63671875,-22.4609375,1758405224.227836,1758405224.2495947
-23.4375,394.04296875,457.03125,-35.15625,1758405224.231624,1758405224.253501
-29.78515625,-8.7890625,108.88671875,-30.76171875,1758405224.2354102,1758405224.2574072
-29.78515625,10.7421875,140.625,-19.04296875,1758405224.2391968,1758405224.2613134
-24.90234375,311.5234375,392.578125,-21.97265625,1758405224.242983,1758405224.2652197
-20.01953125,330.56640625,339.35546875,-17.08984375,1758405224.2467697,1758405224.269126
-11.23046875,-124.0234375,-4.39453125,-5.37109375,1758405224.250556,1758405224.2730322
-14.6484375,-414.55078125,-151.85546875,-10.7421875,1758405224.2543426,1758405224.2769384
-21.484375,-246.58203125,-11.23046875,-18.5546875,1758405224.258129,1758405224.2808447
-12.6953125,-115.234375,166.9921875,-18.06640625,1758405224.2619152,1758405224.284751
-13.671875,-552.24609375,-188.96484375,-9.765625,1758405224.2657018,1758405224.2886572
-21.97265625,-751.46484375,-373.046875,-0.9765625,1758405224.269488,1758405224.2925634
-27.83203125,171.875,468.75,-14.6484375,1758405224.2732747,1758405224.2964697
-21.97265625,314.94140625,525.390625,-24.4140625,1758405224.277061,1758405224.300376
-15.13671875,69.82421875,282.2265625,-20.99609375,1758405224.2820418,1758405224.3042822
-15.625,317.3828125,470.703125,-19.53125,1758405224.2870226,1758405224.3081884
-17.578125,462.40234375,515.625,-13.671875,1758405224.2920036,1758405224.3120947
-12.6953125,150.390625,216.796875,-14.16015625,1758405224.2969844,1758405224.316001
-10.7421875,-62.98828125,52.734375,-25.87890625,1758405224.3019652,1758405224.3199072
-19.04296875,-132.32421875,67.87109375,-32.71484375,1758405224.3069463,1758405224.3238134
-25.87890625,60.05859375,267.578125,-34.66796875,1758405224.311927,1758405224.3277197
-24.90234375,60.546875,253.90625,-31.25,1758405224.316908,1758405224.331626
-28.3203125,-665.0390625,-267.08984375,-21.97265625,1758405224.3218887,1758405224.3355322
-24.4140625,-73.2421875,256.8359375,-25.390625,1758405224.3268695,1758405224.3394384
-23.4375,570.3125,693.84765625,-32.2265625,1758405224.3318505,1758405224.3433447
-19.53125,-151.85546875,69.82421875,-22.94921875,1758405224.3368313,1758405224.347251
-5.37109375,-339.35546875,-79.1015625,-14.16015625,1758405224.3393376,1758405224.3511572
-4.8828125,364.74609375,416.015625,-18.06640625,1758405224.341844,1758405224.3550634
-10.25390625,440.91796875,445.80078125,-19.04296875,1758405224.3443503,1758405224.3589697
-17.578125,103.515625,178.22265625,-12.6953125,1758405224.3468566,1758405224.362876
-24.4140625,78.125,127.44140625,-16.11328125,1758405224.3493629,1758405224.3667822
-20.01953125,93.26171875,162.59765625,-27.83203125,1758405224.351869,1758405224.3706884
-12.20703125,-89.84375,76.66015625,-30.76171875,1758405224.3543756,1758405224.3745947
-15.13671875,-58.59375,118.65234375,-34.66796875,1758405224.3568819,1758405224.378501
-21.484375,209.9609375,322.75390625,-30.76171875,1758405224.359388,1758405224.3824072
-15.13671875,376.953125,362.3046875,-23.4375,1758405224.3618946,1758405224.3863134
-12.20703125,347.65625,327.1484375,-23.4375,1758405224.3644009,1758405224.3902197
-12.6953125,-522.94921875,-409.66796875,-12.6953125,1758405224.3669071,1758405224.394126
-18.5546875,-708.0078125,-519.04296875,-18.5546875,1758405224.370654,1758405224.3980322
-25.87890625,312.01171875,482.91015625,-33.69140625,1758405224.3744013,1758405224.4019384
-13.671875,295.41015625,401.85546875,-31.25,1758405224.3781483,1758405224.4058447
-17.08984375,87.890625,182.12890625,-28.80859375,1758405224.3818955,1758405224.409751
-27.34375,322.75390625,354.00390625,-24.4140625,1758405224.3856425,1758405224.4136572
-17.08984375,154.296875,216.796875,-23.4375,1758405224.3893895,1758405224.4175634
-6.8359375,-171.38671875,-11.23046875,-23.92578125,1758405224.3931367,1758405224.4214697
-18.5546875,-526.3671875,-254.8828125,-21.484375,1758405224.3968837,1758405224.425376
-28.80859375,-23.4375,158.69140625,-28.3203125,1758405224.400631,1758405224.4292822
-23.92578125,535.15625,529.78515625,-30.2734375,1758405224.404378,1758405224.4331884
-17.578125,169.43359375,189.453125,-23.4375,1758405224.4081252,1758405224.4370947
-23.92578125,127.44140625,143.5546875,-27.34375,1758405224.4118721,1758405224.441001
-26.3671875,488.76953125,386.71875,-32.71484375,1758405224.4157355,1758405224.4449072
-15.625,333.984375,216.30859375,-20.5078125,1758405224.4195988,1758405224.4488134
-18.06640625,-311.5234375,-244.140625,-17.08984375,1758405224.4234622,1758405224.4527197
-18.5546875,-195.3125,-76.66015625,-28.80859375,1758405224.4273255,1758405224.456626
-17.578125,375.48828125,350.5859375,-22.94921875,1758405224.4311888,1758405224.4605322
-19.53125,126.953125,147.4609375,-16.6015625,1758405224.4350524,1758405224.4644384
-17.578125,-583.49609375,-369.62890625,-14.6484375,1758405224.4389157,1758405224.4683447
-12.20703125,-531.25,-249.0234375,-14.16015625,1758405224.442779,1758405224.472251
-21.97265625,393.5546875,537.59765625,-21.97265625,1758405224.4466424,1758405224.4761572
-21.484375,385.7421875,435.546875,-20.01953125,1758405224.4505057,1758405224.4800634
-13.671875,125.0,164.55078125,-22.4609375,1758405224.454369,1758405224.4839697
-12.6953125,328.61328125,290.52734375,-22.94921875,1758405224.4582324,1758405224.487876
-9.27734375,530.76171875,390.13671875,-21.484375,1758405224.4630342,1758405224.4917822
-10.7421875,283.69140625,154.296875,-13.671875,1758405224.467836,1758405224.4956884
-14.16015625,19.53125,-75.1953125,-5.859375,1758405224.4726377,1758405224.4995947
-9.27734375,72.265625,-63.96484375,-1.46484375,1758405224.4774392,1758405224.503501
-6.8359375,34.66796875,-111.328125,-4.39453125,1758405224.482241,1758405224.5074072
-15.13671875,-145.99609375,-228.02734375,-12.20703125,1758405224.4870427,1758405224.5113134
-23.92578125,-847.65625,-817.3828125,-4.8828125,1758405224.4918444,1758405224.5152197
-30.2734375,-460.9375,-495.1171875,-7.32421875,1758405224.4966462,1758405224.519126
-28.80859375,500.48828125,300.29296875,-12.20703125,1758405224.5014477,1758405224.5230322
-20.99609375,235.3515625,-6.34765625,-8.7890625,1758405224.5062494,1758405224.5269384
-14.6484375,99.12109375,-166.9921875,-11.23046875,1758405224.5110512,1758405224.5308447
-17.578125,474.609375,73.73046875,-4.8828125,1758405224.515853,1758405224.534751
-11.23046875,509.765625,44.43359375,-0.9765625,1758405224.5196698,1758405224.5386572
-3.90625,166.9921875,-238.76953125,-4.39453125,1758405224.5234869,1758405224.5425634
-13.671875,163.57421875,-197.75390625,-5.859375,1758405224.5273037,1758405224.5464697
-18.06640625,434.5703125,0.9765625,0.48828125,1758405224.5311205,1758405224.550376
-11.23046875,405.2734375,-56.15234375,-4.39453125,1758405224.5349376,1758405224.5542822
-2.44140625,-98.14453125,-402.83203125,0.0,1758405224.5387545,1758405224.5581884
6.8359375,-356.93359375,-552.24609375,13.18359375,1758405224.5425713,1758405224.5620947
-11.23046875,-161.1328125,-371.58203125,-3.41796875,1758405224.5463884,1758405224.566001
-16.6015625,166.015625,-129.8828125,-20.01953125,1758405224.5502052,1758405224.5699072
-13.18359375,-419.43359375,-566.89453125,-12.20703125,1758405224.554022,1758405224.5738134
-26.3671875,-679.6875,-708.0078125,-5.859375,1758405224.5578392,1758405224.5777197
-19.53125,299.31640625,54.6875,-1.46484375,1758405224.561656,1758405224.581626
-3.90625,277.34375,-13.18359375,-0.9765625,1758405224.5654273,1758405224.5855322
1.953125,31.73828125,-213.37890625,-13.18359375,1758405224.5691986,1758405224.5894384
-7.8125,220.21484375,-117.1875,-12.6953125,1758405224.57297,1758405224.5933447
-28.3203125,360.83984375,-32.2265625,-25.87890625,1758405224.5767412,1758405224.597251
-45.8984375,70.80078125,-227.05078125,-39.55078125,1758405224.5805125,1758405224.6011572
-41.50390625,-566.40625,-622.0703125,-32.71484375,1758405224.5842838,1758405224.6050634
-27.83203125,-286.62109375,-326.66015625,-25.87890625,1758405224.5880554,1758405224.6089697
-27.83203125,266.11328125,107.421875,-24.90234375,1758405224.5918267,1758405224.612876
-34.1796875,-145.99609375,-177.734375,-22.94921875,1758405224.595598,1758405224.6167822
-39.0625,-969.23828125,-881.34765625,-21.97265625,1758405224.5993693,1758405224.6206884
-36.1328125,-394.04296875,-281.73828125,-29.78515625,1758405224.6031406,1758405224.6245947
-31.73828125,329.1015625,414.0625,-35.64453125,1758405224.606912,1758405224.628501
-31.73828125,-54.6875,48.828125,-34.66796875,1758405224.6106675,1758405224.6324072
-23.4375,-90.33203125,22.4609375,-23.92578125,1758405224.6144233,1758405224.6363134
-20.01953125,262.6953125,290.52734375,-20.5078125,1758405224.6181788,1758405224.6402197
-24.4140625,285.64453125,298.33984375,-30.76171875,1758405224.6219344,1758405224.644126
-14.16015625,-97.16796875,14.6484375,-34.1796875,1758405224.6256902,1758405224.6480322
-16.11328125,-443.359375,-178.7109375,-30.76171875,1758405224.6294458,1758405224.6519384
-14.6484375,-137.6953125,137.6953125,-27.83203125,1758405224.6332014,1758405224.6558447
-14.16015625,184.08203125,433.10546875,-28.3203125,1758405224.6369572,1758405224.659751
-20.01953125,-496.09375,-137.6953125,-10.7421875,1758405224.6407127,1758405224.6636572
-16.6015625,-637.20703125,-207.03125,-5.859375,1758405224.6444683,1758405224.6675634
-8.30078125,-4.8828125,372.0703125,-18.06640625,1758405224.648224,1758405224.6714697
-13.671875,-205.078125,248.53515625,-24.90234375,1758405224.6519797,1758405224.675376
-22.4609375,-483.88671875,102.5390625,-24.90234375,1758405224.6557252,1758405224.6792822
-16.11328125,-116.69921875,407.71484375,-22.4609375,1758405224.6594708,1758405224.6831884
-14.6484375,292.48046875,665.0390625,-22.94921875,1758405224.663216,1758405224.6870947
-22.4609375,-2.9296875,381.34765625,-19.53125,1758405224.6669617,1758405224.691001
-27.83203125,-156.73828125,257.32421875,-21.484375,1758405224.6707072,1758405224.6949072
-22.4609375,-172.8515625,277.34375,-18.5546875,1758405224.6744528,1758405224.6988134
-18.06640625,-137.6953125,302.734375,-11.71875,1758405224.6781983,1758405224.7027197
-14.16015625,-177.734375,234.375,-11.23046875,1758405224.681944,1758405224.706626
-3.41796875,-681.640625,-155.2734375,-8.7890625,1758405224.6856894,1758405224.7105322
-4.39453125,-148.92578125,319.82421875,-10.7421875,1758405224.6894348,1758405224.7144384
-19.04296875,329.58984375,663.0859375,-19.04296875,1758405224.6931803,1758405224.7183447
-20.01953125,-19.04296875,301.7578125,-17.578125,1758405224.6969259,1758405224.722251
-18.06640625,-68.84765625,195.3125,-19.53125,1758405224.700796,1758405224.7261572
-23.92578125,-39.55078125,167.96875,-25.87890625,1758405224.7046661,1758405224.7300634
-26.85546875,20.01953125,197.265625,-24.90234375,1758405224.7085361,1758405224.7339697
-22.94921875,-249.0234375,2.44140625,-22.94921875,1758405224.7124064,1758405224.737876
-21.484375,-402.83203125,-98.14453125,-27.83203125,1758405224.7162764,1758405224.7417822
-25.390625,-144.53125,68.84765625,-31.25,1758405224.7201467,1758405224.7456884
-27.34375,-153.80859375,46.38671875,-28.80859375,1758405224.7240167,1758405224.7495947
-28.3203125,-597.65625,-394.04296875,-24.4140625,1758405224.7278867,1758405224.753501
-23.4375,-598.14453125,-409.1796875,-15.625,1758405224.731757,1758405224.7574072
-18.06640625,252.44140625,328.61328125,-17.08984375,1758405224.735627,1758405224.7613134
-28.3203125,179.19921875,184.08203125,-19.04296875,1758405224.7394972,1758405224.7652197
-32.71484375,-61.5234375,-54.6875,-28.3203125,1758405224.7433672,1758405224.769126
-23.4375,193.359375,63.96484375,-31.25,1758405224.7469616,1758405224.7730322
-26.3671875,409.1796875,130.859375,-18.5546875,1758405224.750556,1758405224.7769384
-31.25,191.40625,-118.65234375,-19.53125,1758405224.7541504,1758405224.7808447
-29.296875,-149.90234375,-442.87109375,-24.90234375,1758405224.7577448,1758405224.784751
-23.4375,-27.34375,-295.41015625,-29.78515625,1758405224.7613392,1758405224.7886572
-15.13671875,-2.44140625,-269.04296875,-33.203125,1758405224.7649336,1758405224.7925634
-11.23046875,-286.1328125,-522.4609375,-34.1796875,1758405224.768528,1758405224.7964697
-9.765625,-875.48828125,-933.10546875,-23.4375,1758405224.7721224,1758405224.800376
-11.71875,-469.7265625,-620.60546875,-17.578125,1758405224.7757168,1758405224.8042822
-7.32421875,434.5703125,-8.7890625,-22.4609375,1758405224.7793112,1758405224.8081884
-5.37109375,128.41796875,-348.6328125,-24.90234375,1758405224.7829056,1758405224.8120947
-1.953125,4.39453125,-510.7421875,-18.5546875,1758405224.7865,1758405224.816001
-15.13671875,354.4921875,-323.2421875,-18.06640625,1758405224.7902842,1758405224.8199072
-22.4609375,354.98046875,-431.640625,-20.01953125,1758405224.7940686,1758405224.8238134
-17.08984375,39.0625,-706.0546875,-14.6484375,1758405224.7978528,1758405224.8277197
-20.99609375,76.171875,-715.8203125,-20.5078125,1758405224.801637,1758405224.831626
-29.296875,228.515625,-641.11328125,-32.2265625,1758405224.8054214,1758405224.8355322
-30.76171875,-26.85546875,-893.5546875,-31.25,1758405224.8092055,1758405224.8394384
-33.203125,-616.69921875,-1000.0,-24.90234375,1758405224.8129897,1758405224.8433447
-32.71484375,-768.5546875,-937.98828125,-25.87890625,1758405224.8167741,1758405224.847251
-26.3671875,135.25390625,-623.046875,-34.66796875,1758405224.8205583,1758405224.8511572
-29.78515625,324.70703125,-661.1328125,-30.76171875,1758405224.8243425,1758405224.8550634
-34.1796875,11.23046875,-971.6796875,-23.92578125,1758405224.828127,1758405224.8589697
-34.66796875,212.40234375,-847.16796875,-24.4140625,1758405224.831911,1758405224.862876
-29.78515625,439.94140625,-805.6640625,-20.99609375,1758405224.8367882,1758405224.8667822
-26.3671875,215.33203125,-982.421875,-19.04296875,1758405224.8416653,1758405224.8706884
-16.11328125,-28.3203125,-1000.0,-13.671875,1758405224.8465424,1758405224.8745947
-10.7421875,170.8984375,-995.1171875,-8.30078125,1758405224.8514194,1758405224.878501
-13.18359375,304.19921875,-1000.0,-3.41796875,1758405224.8562965,1758405224.8824072
-5.37109375,-166.50390625,-1000.0,-4.39453125,1758405224.8611736,1758405224.8863134
9.27734375,-718.75,-1000.0,8.30078125,1758405224.866051,1758405224.8902197
23.4375,-180.6640625,-1000.0,34.66796875,1758405224.870928,1758405224.894126
-2.9296875,210.9375,-997.0703125,20.01953125,1758405224.8758051,1758405224.8980322
-38.57421875,-388.671875,-1000.0,-15.625,1758405224.8806822,1758405224.9019384
-30.76171875,-459.9609375,-978.515625,-10.7421875,1758405224.8855593,1758405224.9058447
-23.92578125,242.1875,-934.5703125,-2.44140625,1758405224.8904364,1758405224.909751
-31.25,363.76953125,-980.95703125,-14.16015625,1758405224.894299,1758405224.9136572
-35.64453125,-32.2265625,-1000.0,-20.01953125,1758405224.8981614,1758405224.9175634
-37.109375,-35.64453125,-997.55859375,-11.23046875,1758405224.9020238,1758405224.9214697
-35.15625,311.03515625,-1000.0,-13.18359375,1758405224.9058864,1758405224.925376
-42.96875,338.37890625,-997.0703125,-22.4609375,1758405224.909749,1758405224.9292822
-47.36328125,-338.37890625,-998.53515625,-17.578125,1758405224.9136114,1758405224.9331884
-39.55078125,-421.875,-1000.0,-21.484375,1758405224.9174738,1758405224.9370947
-36.62109375,338.37890625,-834.47265625,-30.2734375,1758405224.9213364,1758405224.941001
-42.48046875,378.90625,-787.59765625,-29.78515625,1758405224.925199,1758405224.9449072
-51.26953125,-151.3671875,-964.35546875,-29.78515625,1758405224.9290614,1758405224.9488134
-52.734375,-104.98046875,-870.1171875,-33.203125,1758405224.9329238,1758405224.9527197
-43.45703125,190.91796875,-788.0859375,-29.296875,1758405224.9367864,1758405224.956626
-41.9921875,188.96484375,-774.4140625,-22.94921875,1758405224.9405346,1758405224.9605322
-41.50390625,-68.359375,-827.63671875,-15.13671875,1758405224.9442825,1758405224.9644384
-41.9921875,57.12890625,-699.21875,-16.11328125,1758405224.9480307,1758405224.9683447
-36.1328125,399.4140625,-579.1015625,-16.11328125,1758405224.951779,1758405224.972251
-22.94921875,215.33203125,-672.8515625,-3.90625,1758405224.9555268,1758405224.9761572
-21.484375,-205.078125,-917.96875,-3.90625,1758405224.959275,1758405224.9800634
-24.4140625,-197.75390625,-838.8671875,-20.99609375,1758405224.9630232,1758405224.9839697
-15.625,303.7109375,-444.3359375,-21.97265625,1758405224.9667711,1758405224.987876
-8.30078125,66.89453125,-619.62890625,-5.37109375,1758405224.9705193,1758405224.9917822
-13.671875,-598.14453125,-889.16015625,2.9296875,1758405224.9742675,1758405224.9956884
-11.23046875,-4.8828125,-419.43359375,-1.46484375,1758405224.9780154,1758405224.9995947
-7.32421875,562.5,-94.7265625,-3.41796875,1758405224.9817636,1758405225.003501
-2.9296875,68.84765625,-495.1171875,-5.37109375,1758405224.9855747,1758405225.0074072
-7.32421875,-289.55078125,-725.09765625,-11.71875,1758405224.9893858,1758405225.0113134
-20.99609375,115.72265625,-341.30859375,-20.5078125,1758405224.993197,1758405225.0152197
-8.7890625,413.57421875,-144.04296875,-18.06640625,1758405224.997008,1758405225.019126
1.953125,-103.02734375,-515.13671875,-9.765625,1758405225.0008192,1758405225.0230322
-2.9296875,-535.64453125,-719.7265625,-3.41796875,1758405225.00463,1758405225.0269384
-4.39453125,-39.55078125,-312.5,0.48828125,1758405225.0084412,1758405225.0308447
0.0,394.04296875,-46.875,-7.32421875,1758405225.0122523,1758405225.034751
5.859375,-343.75,-580.078125,2.44140625,1758405225.0160635,1758405225.0386572
-2.9296875,-537.109375,-639.16015625,7.32421875,1758405225.0198746,1758405225.0425634
-0.48828125,366.69921875,-5.37109375,1.46484375,1758405225.0236857,1758405225.0464697
8.30078125,278.3203125,-144.53125,7.8125,1758405225.0274968,1758405225.050376
3.41796875,5.37109375,-335.9375,20.01953125,1758405225.0311728,1758405225.0542822
3.90625,232.91015625,-157.71484375,20.5078125,1758405225.0348487,1758405225.0581884
4.39453125,441.89453125,-12.6953125,11.71875,1758405225.0385246,1758405225.0620947
2.44140625,148.92578125,-291.015625,3.41796875,1758405225.0422008,1758405225.066001
1.953125,-218.75,-556.640625,3.41796875,1758405225.0458767,1758405225.0699072
5.37109375,-229.98046875,-509.27734375,6.34765625,1758405225.0495527,1758405225.0738134
4.8828125,55.17578125,-280.76171875,2.44140625,1758405225.0532286,1758405225.0777197
1.953125,39.0625,-311.5234375,2.9296875,1758405225.0569046,1758405225.081626
0.48828125,-751.46484375,-855.46875,10.25390625,1758405225.0605807,1758405225.0855322
-2.44140625,-254.39453125,-387.6953125,-1.953125,1758405225.0642567,1758405225.0894384
-2.44140625,421.875,45.8984375,-12.6953125,1758405225.0679326,1758405225.0933447
-4.39453125,17.08984375,-330.078125,-11.23046875,1758405225.0716085,1758405225.097251
-11.71875,-44.43359375,-358.88671875,-15.625,1758405225.0753791,1758405225.1011572
-10.25390625,286.1328125,-160.15625,-13.671875,1758405225.07915,1758405225.1050634
-4.39453125,327.1484375,-178.22265625,-9.765625,1758405225.0829206,1758405225.1089697
-11.23046875,21.97265625,-369.62890625,-11.71875,1758405225.0866911,1758405225.112876
-9.27734375,5.37109375,-397.4609375,-8.30078125,1758405225.090462,1758405225.1167822
-7.8125,-42.48046875,-411.62109375,-6.8359375,1758405225.0942326,1758405225.1206884
-16.6015625,-205.078125,-434.5703125,-10.25390625,1758405225.0980031,1758405225.1245947
-22.4609375,-632.32421875,-745.1171875,-7.32421875,1758405225.101774,1758405225.128501
-32.2265625,-768.5546875,-777.34375,-1.953125,1758405225.1055446,1758405225.1324072
-27.83203125,136.23046875,5.37109375,-4.39453125,1758405225.1093152,1758405225.1363134
-14.6484375,332.03125,119.62890625,-4.8828125,1758405225.113086,1758405225.1402197
-8.7890625,66.40625,-114.2578125,-0.9765625,1758405225.1168566,1758405225.144126
0.0,212.890625,-31.73828125,7.8125,1758405225.1206129,1758405225.1480322
-2.44140625,438.96484375,114.2578125,8.30078125,1758405225.124369,1758405225.1519384
2.9296875,231.93359375,-65.4296875,8.30078125,1758405225.1281252,1758405225.1558447
-0.48828125,3.41796875,-234.375,9.27734375,1758405225.1318812,1758405225.159751
-6.8359375,174.31640625,-71.77734375,4.8828125,1758405225.1356375,1758405225.1636572
-0.48828125,-4.39453125,-179.6875,13.18359375,1758405225.1393938,1758405225.1675634
5.859375,-310.05859375,-367.1875,14.6484375,1758405225.1431499,1758405225.1714697
11.23046875,-563.96484375,-498.53515625,17.08984375,1758405225.1469061,1758405225.175376
5.37109375,-265.13671875,-190.91796875,17.08984375,1758405225.1506622,1758405225.1792822
-5.37109375,169.921875,174.8046875,11.71875,1758405225.1544185,1758405225.1831884
0.0,-69.82421875,23.92578125,17.08984375,1758405225.1581745,1758405225.1870947
4.39453125,-247.0703125,-46.38671875,15.625,1758405225.1619308,1758405225.191001
10.7421875,361.81640625,434.08203125,11.23046875,1758405225.1656802,1758405225.1949072
38.57421875,469.23828125,482.91015625,35.15625,1758405225.1694295,1758405225.1988134
29.296875,93.26171875,231.4453125,32.71484375,1758405225.1731791,1758405225.2027197
-16.11328125,132.32421875,315.91796875,-7.8125,1758405225.1769285,1758405225.206626
-20.5078125,368.65234375,475.5859375,-7.8125,1758405225.180678,1758405225.2105322
-4.8828125,112.79296875,353.02734375,4.39453125,1758405225.1844273,1758405225.2144384
7.32421875,-572.75390625,-82.51953125,12.20703125,1758405225.1881766,1758405225.2183447
0.9765625,-550.78125,5.37109375,12.20703125,1758405225.191926,1758405225.222251
-9.27734375,349.609375,820.80078125,1.46484375,1758405225.1956754,1758405225.2261572
-15.625,361.81640625,811.03515625,-4.39453125,1758405225.199425,1758405225.2300634
-20.99609375,56.15234375,497.0703125,-5.37109375,1758405225.2031744,1758405225.2339697
-10.7421875,-24.90234375,453.125,0.0,1758405225.2069237,1758405225.237876
-5.859375,267.578125,716.30859375,-4.8828125,1758405225.2117617,1758405225.2417822
0.48828125,338.37890625,778.80859375,-2.9296875,1758405225.2166,1758405225.2456884
6.8359375,-142.578125,438.4765625,5.37109375,1758405225.221438,1758405225.2495947
10.7421875,125.0,678.22265625,-0.9765625,1758405225.2262762,1758405225.253501
7.8125,522.4609375,938.96484375,-1.46484375,1758405225.2311141,1758405225.2574072
6.34765625,33.203125,536.62109375,12.20703125,1758405225.2359524,1758405225.2613134
12.20703125,-586.9140625,91.30859375,20.5078125,1758405225.2407904,1758405225.2652197
10.7421875,-26.3671875,556.640625,14.6484375,1758405225.2456284,1758405225.269126
13.18359375,588.37890625,970.21484375,22.4609375,1758405225.2504666,1758405225.2730322
10.7421875,251.953125,657.71484375,26.3671875,1758405225.2553046,1758405225.2769384
10.7421875,171.875,578.61328125,15.625,1758405225.2601428,1758405225.2808447
20.5078125,455.078125,701.66015625,17.08984375,1758405225.2649808,1758405225.284751
10.25390625,502.44140625,659.66796875,19.53125,1758405225.2700505,1758405225.2886572
0.9765625,14.16015625,272.4609375,6.34765625,1758405225.27512,1758405225.2925634
1.953125,-130.859375,175.29296875,-4.39453125,1758405225.2801898,1758405225.2964697
-1.953125,357.91015625,557.6171875,-0.48828125,1758405225.2852592,1758405225.300376
4.39453125,489.2578125,624.0234375,2.9296875,1758405225.290329,1758405225.3042822
8.7890625,-320.80078125,-64.453125,11.23046875,1758405225.2953987,1758405225.3081884
0.0,-665.0390625,-293.9453125,7.8125,1758405225.3004682,1758405225.3120947
-2.44140625,318.84765625,581.54296875,-7.32421875,1758405225.305538,1758405225.316001
5.859375,462.890625,643.06640625,-2.9296875,1758405225.3106074,1758405225.3199072
14.6484375,129.39453125,310.546875,6.34765625,1758405225.3156772,1758405225.3238134
16.11328125,208.984375,362.79296875,7.8125,1758405225.3207467,1758405225.3277197
22.4609375,441.40625,524.4140625,8.7890625,1758405225.3258164,1758405225.331626
19.04296875,264.16015625,382.8125,14.16015625,1758405225.3283722,1758405225.3355322
21.484375,-67.87109375,169.43359375,16.6015625,1758405225.330928,1758405225.3394384
18.06640625,216.796875,425.29296875,15.625,1758405225.333484,1758405225.3433447
15.13671875,448.2421875,551.26953125,15.13671875,1758405225.3360398,1758405225.347251
13.18359375,43.45703125,257.8125,11.71875,1758405225.3385956,1758405225.3511572
5.859375,-655.76171875,-194.82421875,20.01953125,1758405225.3411517,1758405225.3550634
7.32421875,-293.9453125,159.1796875,12.6953125,1758405225.3437076,1758405225.3589697
6.8359375,524.90234375,810.546875,4.39453125,1758405225.3462634,1758405225.362876
6.34765625,95.21484375,420.41015625,9.27734375,1758405225.3488193,1758405225.3667822
10.7421875,-155.76171875,229.00390625,8.30078125,1758405225.351375,1758405225.3706884
15.13671875,416.50390625,645.5078125,7.8125,1758405225.353931,1758405225.3745947
17.08984375,622.0703125,735.83984375,9.27734375,1758405225.3564868,1758405225.378501
17.578125,-22.4609375,206.0546875,18.5546875,1758405225.3602874,1758405225.3824072
14.16015625,-319.82421875,-27.34375,13.671875,1758405225.3640878,1758405225.3863134
9.27734375,377.44140625,495.60546875,6.8359375,1758405225.3678885,1758405225.3902197
9.27734375,445.80078125,455.078125,15.625,1758405225.3716888,1758405225.394126
20.99609375,65.4296875,82.51953125,14.6484375,1758405225.3754895,1758405225.3980322
19.04296875,-203.125,-109.375,7.8125,1758405225.37929,1758405225.4019384
12.20703125,-132.32421875,-84.9609375,11.71875,1758405225.3830905,1758405225.4058447
10.25390625,64.94140625,11.23046875,4.39453125,1758405225.3868911,1758405225.409751
0.9765625,-473.14453125,-453.61328125,9.27734375,1758405225.3906915,1758405225.4136572
3.90625,-742.1875,-703.61328125,27.34375,1758405225.3944921,1758405225.4175634
30.2734375,268.06640625,100.09765625,39.0625,1758405225.3982925,1758405225.4214697
29.78515625,437.01171875,158.69140625,24.90234375,1758405225.4020932,1758405225.425376
-5.37109375,163.0859375,-135.25390625,-10.7421875,1758405225.4058278,1758405225.4292822
-14.6484375,388.671875,-35.64453125,-11.71875,1758405225.4095623,1758405225.4331884
-2.44140625,551.26953125,16.11328125,-4.39453125,1758405225.413297,1758405225.4370947
14.16015625,320.80078125,-190.4296875,5.859375,1758405225.4170315,1758405225.441001
16.11328125,144.04296875,-330.078125,14.16015625,1758405225.420766,1758405225.4449072
7.32421875,64.94140625,-380.859375,6.8359375,1758405225.4245005,1758405225.4488134
0.48828125,73.2421875,-384.27734375,-4.39453125,1758405225.428235,1758405225.4527197
3.41796875,84.47265625,-392.08984375,-1.46484375,1758405225.4319696,1758405225.456626
7.32421875,-598.6328125,-815.4296875,12.6953125,1758405225.4357042,1758405225.4605322
1.46484375,-307.12890625,-528.3203125,5.37109375,1758405225.4394388,1758405225.4644384
6.34765625,559.5703125,79.1015625,0.9765625,1758405225.4431734,1758405225.4683447
16.11328125,59.08203125,-349.12109375,7.32421875,1758405225.446908,1758405225.472251
15.625,-334.9609375,-698.73046875,10.25390625,1758405225.4517953,1758405225.4761572
14.6484375,400.87890625,-166.9921875,13.671875,1758405225.4566824,1758405225.4800634
10.7421875,524.4140625,-98.14453125,8.7890625,1758405225.4615698,1758405225.4839697
12.20703125,-19.53125,-505.859375,5.859375,1758405225.466457,1758405225.487876
10.7421875,-58.59375,-523.92578125,10.25390625,1758405225.4713442,1758405225.4917822
-2.9296875,-3.90625,-437.98828125,8.7890625,1758405225.4762316,1758405225.4956884
5.37109375,-68.359375,-453.61328125,3.90625,1758405225.4811187,1758405225.4995947
20.01953125,-472.65625,-697.265625,15.13671875,1758405225.486006,1758405225.503501
19.04296875,-525.390625,-634.765625,27.83203125,1758405225.4908931,1758405225.5074072
15.625,424.31640625,65.91796875,16.6015625,1758405225.4957805,1758405225.5113134
16.6015625,410.64453125,-29.296875,13.671875,1758405225.5006676,1758405225.5152197
19.53125,-31.73828125,-407.71484375,9.765625,1758405225.505555,1758405225.519126
16.11328125,154.78515625,-206.54296875,9.765625,1758405225.5081909,1758405225.5230322
18.06640625,548.33984375,132.8125,20.01953125,1758405225.5108266,1758405225.5269384
20.5078125,327.63671875,-103.515625,19.04296875,1758405225.5134625,1758405225.5308447
17.08984375,-101.07421875,-424.8046875,13.18359375,1758405225.5160983,1758405225.534751
15.625,134.27734375,-151.85546875,14.16015625,1758405225.5187342,1758405225.5386572
15.13671875,199.70703125,-46.38671875,10.7421875,1758405225.52137,1758405225.5425634
17.08984375,-196.2890625,-333.49609375,17.578125,1758405225.524006,1758405225.5464697
17.578125,-504.39453125,-536.62109375,29.78515625,1758405225.5266418,1758405225.550376
20.01953125,2.9296875,-99.12109375,26.85546875,1758405225.5292776,1758405225.5542822
17.08984375,630.37109375,354.4921875,21.484375,1758405225.5319135,1758405225.5581884
18.06640625,129.8828125,-107.91015625,13.671875,1758405225.5345492,1758405225.5620947
18.5546875,-209.47265625,-346.19140625,20.5078125,1758405225.5371852,1758405225.566001
18.06640625,392.578125,110.3515625,20.99609375,1758405225.5410175,1758405225.5699072
25.87890625,434.5703125,90.33203125,17.08984375,1758405225.54485,1758405225.5738134
24.90234375,-295.8984375,-438.96484375,27.34375,1758405225.5486827,1758405225.5777197
21.484375,-261.71875,-386.23046875,19.53125,1758405225.552515,1758405225.581626
27.83203125,395.5078125,103.02734375,16.11328125,1758405225.5563474,1758405225.5855322
33.203125,230.95703125,-28.80859375,20.99609375,1758405225.56018,1758405225.5894384
24.4140625,-510.7421875,-600.5859375,17.578125,1758405225.5640125,1758405225.5933447
17.578125,-526.85546875,-582.51953125,10.25390625,1758405225.5678449,1758405225.597251
9.765625,430.17578125,190.91796875,0.0,1758405225.5716772,1758405225.6011572
10.25390625,515.625,187.01171875,-1.953125,1758405225.5755098,1758405225.6050634
15.13671875,122.55859375,-179.6875,-0.9765625,1758405225.5793424,1758405225.6089697
9.27734375,113.76953125,-185.546875,13.671875,1758405225.5831747,1758405225.612876
11.71875,457.51953125,53.22265625,15.625,1758405225.5879307,1758405225.6167822
18.5546875,342.28515625,-73.73046875,12.6953125,1758405225.5926867,1758405225.6206884
23.4375,140.13671875,-226.5625,17.08984375,1758405225.5974426,1758405225.6245947
22.94921875,309.5703125,-123.046875,16.11328125,1758405225.6021984,1758405225.628501
16.11328125,144.04296875,-248.53515625,13.671875,1758405225.6069543,1758405225.6324072
22.4609375,-127.9296875,-355.95703125,11.23046875,1758405225.6117103,1758405225.6363134
27.34375,-757.32421875,-800.78125,23.4375,1758405225.6164663,1758405225.6402197
21.484375,-501.46484375,-555.6640625,23.4375,1758405225.6212223,1758405225.644126
28.3203125,461.42578125,235.83984375,21.484375,1758405225.625978,1758405225.6480322
21.484375,218.75,35.15625,14.6484375,1758405225.630734,1758405225.6519384
-3.41796875,116.69921875,-41.9921875,-9.27734375,1758405225.63549,1758405225.6558447
-6.34765625,479.4921875,208.0078125,-5.859375,1758405225.640246,1758405225.659751
-1.953125,492.67578125,172.8515625,-7.32421875,1758405225.6441002,1758405225.6636572
-1.46484375,126.46484375,-135.7421875,-7.32421875,1758405225.6479545,1758405225.6675634
0.9765625,117.67578125,-74.21875,-1.953125,1758405225.6518087,1758405225.6714697
-0.48828125,468.26171875,238.76953125,-9.765625,1758405225.6556633,1758405225.675376
-8.7890625,445.3125,171.38671875,-14.16015625,1758405225.6595175,1758405225.6792822
-1.953125,-207.03125,-305.6640625,-3.41796875,1758405225.6633718,1758405225.6831884
0.0,-504.39453125,-413.57421875,0.0,1758405225.667226,1758405225.6870947
-7.32421875,54.6875,65.4296875,0.0,1758405225.6710804,1758405225.691001
-7.32421875,416.50390625,332.03125,-3.41796875,1758405225.6749349,1758405225.6949072
1.953125,-363.28125,-244.62890625,3.41796875,1758405225.6787891,1758405225.6988134
11.71875,-539.55078125,-313.96484375,13.671875,1758405225.6826434,1758405225.7027197
6.34765625,424.31640625,491.69921875,1.953125,1758405225.6864977,1758405225.706626
6.34765625,349.609375,429.19921875,9.765625,1758405225.6902816,1758405225.7105322
15.13671875,-74.70703125,104.98046875,17.578125,1758405225.6940656,1758405225.7144384
15.625,168.9453125,351.5625,5.859375,1758405225.6978495,1758405225.7183447
20.01953125,475.09765625,557.6171875,0.9765625,1758405225.7016335,1758405225.722251
24.4140625,238.28125,366.2109375,5.859375,1758405225.7054174,1758405225.7261572
12.6953125,-215.33203125,116.2109375,10.25390625,1758405225.7092013,1758405225.7300634
6.8359375,-98.14453125,288.57421875,5.859375,1758405225.712985,1758405225.7339697
4.39453125,393.06640625,685.546875,0.48828125,1758405225.716769,1758405225.737876
3.41796875,190.4296875,525.390625,13.671875,1758405225.720553,1758405225.7417822
7.8125,-801.7578125,-270.5078125,20.5078125,1758405225.7243369,1758405225.7456884
-1.953125,-397.4609375,148.4375,7.8125,1758405225.7281208,1758405225.7495947
0.0,488.76953125,956.54296875,6.34765625,1758405225.7319047,1758405225.753501
9.765625,141.6015625,650.87890625,5.37109375,1758405225.7356474,1758405225.7574072
6.8359375,45.8984375,522.94921875,2.44140625,1758405225.7393901,1758405225.7613134
3.90625,395.5078125,751.953125,-6.34765625,1758405225.7431328,1758405225.7652197
6.34765625,411.1328125,759.27734375,-6.34765625,1758405225.7468755,1758405225.769126
8.30078125,110.83984375,562.01171875,2.44140625,1758405225.7506182,1758405225.7730322
2.44140625,-233.3984375,362.79296875,-6.8359375,1758405225.754361,1758405225.7769384
-10.7421875,-73.2421875,469.23828125,-17.578125,1758405225.7581036,1758405225.7808447
-11.23046875,374.0234375,773.4375,-13.671875,1758405225.7618463,1758405225.784751
2.44140625,-316.40625,289.55078125,4.8828125,1758405225.765589,1758405225.7886572
3.41796875,-559.5703125,190.91796875,3.41796875,1758405225.7693317,1758405225.7925634
8.30078125,385.25390625,895.5078125,-8.30078125,1758405225.7730744,1758405225.7964697
0.0,279.296875,776.85546875,-6.8359375,1758405225.776817,1758405225.800376
-7.8125,-184.5703125,499.51171875,2.9296875,1758405225.7805917,1758405225.8042822
-1.46484375,139.16015625,778.3203125,1.46484375,1758405225.7843664,1758405225.8081884
1.46484375,530.76171875,999.51171875,1.953125,1758405225.7881408,1758405225.8120947
9.765625,284.66796875,782.71484375,14.6484375,1758405225.7919154,1758405225.816001
4.8828125,24.4140625,586.42578125,11.23046875,1758405225.79569,1758405225.8199072
-3.41796875,-39.55078125,595.21484375,9.27734375,1758405225.7994647,1758405225.8238134
-1.46484375,-21.97265625,665.52734375,5.37109375,1758405225.8032393,1758405225.8277197
-4.8828125,-144.53125,583.49609375,-8.7890625,1758405225.807014,1758405225.831626
-6.8359375,-541.50390625,337.890625,-14.16015625,1758405225.8107886,1758405225.8355322
7.32421875,47.8515625,770.5078125,-13.671875,1758405225.814563,1758405225.8394384
17.08984375,609.86328125,999.51171875,-15.13671875,1758405225.8183377,1758405225.8433447
15.625,192.87109375,781.25,-6.8359375,1758405225.8221123,1758405225.847251
20.99609375,160.64453125,803.7109375,10.25390625,1758405225.825953,1758405225.8511572
35.64453125,438.4765625,953.61328125,12.20703125,1758405225.8297935,1758405225.8550634
37.59765625,185.05859375,785.64453125,15.625,1758405225.833634,1758405225.8589697
29.296875,-302.734375,507.32421875,25.390625,1758405225.8374746,1758405225.862876
18.06640625,-135.7421875,669.43359375,20.99609375,1758405225.8413153,1758405225.8667822
6.8359375,200.68359375,953.61328125,5.37109375,1758405225.8451557,1758405225.8706884
-13.671875,125.0,908.203125,-10.7421875,1758405225.8489962,1758405225.8745947
-25.390625,-410.64453125,525.390625,-6.34765625,1758405225.8528368,1758405225.878501
-13.18359375,-494.62890625,500.0,2.44140625,1758405225.8566775,1758405225.8824072
-10.25390625,490.234375,999.51171875,-12.6953125,1758405225.860518,1758405225.8863134
-5.859375,491.2109375,954.1015625,-14.16015625,1758405225.8643584,1758405225.8902197
-10.25390625,159.66796875,883.7890625,-8.7890625,1758405225.868199,1758405225.894126
-16.11328125,391.11328125,954.1015625,-12.6953125,1758405225.8718147,1758405225.8980322
-8.30078125,609.375,988.76953125,-8.7890625,1758405225.8754303,1758405225.9019384
-1.953125,367.1875,942.3828125,0.48828125,1758405225.879046,1758405225.9058447
-3.41796875,145.99609375,858.88671875,-7.8125,1758405225.8826616,1758405225.909751
-8.7890625,72.75390625,760.7421875,-12.6953125,1758405225.8862772,1758405225.9136572
-10.7421875,-114.74609375,680.6640625,-6.8359375,1758405225.8898926,1758405225.9175634
-7.8125,-165.0390625,722.65625,-0.9765625,1758405225.8935082,1758405225.9214697
-3.90625,-747.55859375,232.421875,8.7890625,1758405225.8971238,1758405225.925376
-19.53125,-505.859375,436.03515625,0.48828125,1758405225.9007394,1758405225.9292822
-18.5546875,429.19921875,999.51171875,-2.9296875,1758405225.904355,1758405225.9331884
-6.34765625,165.0390625,864.2578125,-1.46484375,1758405225.9079707,1758405225.9370947
15.625,66.40625,852.05078125,13.18359375,1758405225.9115863,1758405225.941001
-58.10546875,162.59765625,841.796875,-39.0625,1758405225.9456887,1758405225.9568365
-41.015625,435.05859375,985.83984375,-21.97265625,1758405225.9494777,1758405225.9607427
-42.96875,113.28125,685.05859375,-20.5078125,1758405225.9532669,1758405225.964649
-49.31640625,251.953125,701.171875,-24.4140625,1758405225.957056,1758405225.9685552
-42.96875,521.484375,834.9609375,-20.01953125,1758405225.9631512,1758405225.9724615
-46.875,302.24609375,601.07421875,-20.01953125,1758405225.9692464,1758405225.9763677
-55.17578125,28.3203125,392.08984375,-21.484375,1758405225.9753418,1758405225.980274
-45.41015625,247.55859375,526.85546875,-15.625,1758405225.981437,1758405225.9841802
-28.80859375,395.01953125,559.08203125,-7.32421875,1758405225.9875321,1758405225.9880865
-20.5078125,-25.390625,248.53515625,-4.8828125,1758405225.9936275,1758405225.9919927
-18.06640625,-686.5234375,-250.0,-1.46484375,1758405225.9997227,1758405225.995899
-17.578125,-170.8984375,194.82421875,-4.39453125,1758405226.005818,1758405225.9998052
-12.20703125,450.68359375,615.72265625,-6.8359375,1758405226.011913,1758405226.0037115
-17.08984375,-118.65234375,113.76953125,0.48828125,1758405226.0180082,1758405226.0076177
-13.18359375,-470.703125,-91.30859375,-0.48828125,1758405226.0241036,1758405226.011524
2.9296875,82.03125,325.1953125,-2.9296875,1758405226.0301988,1758405226.0154302
1.46484375,434.5703125,480.46875,-0.48828125,1758405226.0328152,1758405226.0193365
6.34765625,142.578125,203.125,4.39453125,1758405226.0354316,1758405226.0232427
-0.9765625,50.29296875,107.421875,-3.90625,1758405226.038048,1758405226.027149
-10.25390625,349.609375,282.71484375,-17.08984375,1758405226.0406644,1758405226.0310552
-0.9765625,421.38671875,312.98828125,-18.06640625,1758405226.0432808,1758405226.0349615
-9.27734375,-318.359375,-275.87890625,-6.8359375,1758405226.0458975,1758405226.0388677
-23.92578125,-570.80078125,-419.921875,-11.71875,1758405226.048514,1758405226.042774
-21.484375,187.01171875,169.921875,-20.01953125,1758405226.0511303,1758405226.0466802
-12.20703125,265.625,164.0625,-11.23046875,1758405226.0537467,1758405226.0505865
-12.20703125,-123.53515625,-104.00390625,-9.765625,1758405226.056363,1758405226.0544927
-12.20703125,12.6953125,5.37109375,-13.18359375,1758405226.0589795,1758405226.058399
-5.37109375,148.92578125,62.5,-5.859375,1758405226.061596,1758405226.0623052
-1.953125,-76.66015625,-57.12890625,-0.48828125,1758405226.0653665,1758405226.0662115
-3.41796875,-557.12890625,-434.08203125,2.44140625,1758405226.069137,1758405226.0701177
-7.8125,-408.203125,-258.7890625,-0.9765625,1758405226.0729077,1758405226.074024
-9.27734375,334.47265625,317.87109375,-5.859375,1758405226.0766783,1758405226.0779302
-4.39453125,153.80859375,65.91796875,-3.41796875,1758405226.0804489,1758405226.0818365
-3.41796875,-344.23828125,-246.09375,4.39453125,1758405226.0842195,1758405226.0857427
-2.44140625,-116.2109375,-6.8359375,0.0,1758405226.0879903,1758405226.089649
-5.859375,448.73046875,358.88671875,-17.578125,1758405226.0917609,1758405226.0935552
-11.71875,74.21875,-1.953125,-19.53125,1758405226.0955315,1758405226.0974615
-10.7421875,-465.33203125,-367.1875,-11.71875,1758405226.099302,1758405226.1013677
-5.859375,117.1875,121.09375,-8.30078125,1758405226.1030726,1758405226.105274
-11.23046875,449.70703125,305.17578125,-9.27734375,1758405226.1068432,1758405226.1091802
-22.94921875,89.35546875,-11.23046875,-7.32421875,1758405226.1107047,1758405226.1130865
-16.6015625,-24.90234375,-134.27734375,-2.44140625,1758405226.1145658,1758405226.1169927
-15.625,68.84765625,-47.8515625,-9.765625,1758405226.1184273,1758405226.120899
-20.01953125,297.36328125,121.58203125,-14.6484375,1758405226.1222885,1758405226.1248052
-12.20703125,-129.39453125,-211.9140625,1.46484375,1758405226.12615,1758405226.1287115
-11.23046875,-646.484375,-508.7890625,6.8359375,1758405226.130011,1758405226.1326177
-6.34765625,-83.49609375,-13.18359375,-1.953125,1758405226.1338725,1758405226.136524
-4.8828125,397.4609375,287.109375,-5.859375,1758405226.137734,1758405226.1404302
-9.27734375,-346.6796875,-385.25390625,0.48828125,1758405226.1415951,1758405226.1443365
-11.71875,-589.35546875,-501.953125,-6.34765625,1758405226.1454566,1758405226.1482427
-2.9296875,316.89453125,245.60546875,-9.27734375,1758405226.1493177,1758405226.152149
7.32421875,296.875,133.30078125,-1.953125,1758405226.1531792,1758405226.1560552
-0.9765625,48.33984375,-84.47265625,-11.71875,1758405226.1568024,1758405226.1599615
-10.25390625,233.3984375,54.19921875,-7.32421875,1758405226.1604257,1758405226.1638677
-6.34765625,477.5390625,195.3125,1.46484375,1758405226.164049,1758405226.167774
-2.9296875,273.4375,-19.53125,-1.46484375,1758405226.1676722,1758405226.1716802
-5.859375,-178.7109375,-349.12109375,1.953125,1758405226.1712954,1758405226.1755865
6.34765625,-223.14453125,-332.51953125,32.2265625,1758405226.1749187,1758405226.1794927
16.6015625,-106.93359375,-198.2421875,38.57421875,1758405226.1785417,1758405226.183399
-2.9296875,-102.5390625,-151.85546875,2.9296875,1758405226.182165,1758405226.1873052
-2.9296875,-746.09375,-681.15234375,11.71875,1758405226.1857882,1758405226.1912115
3.90625,-457.51953125,-409.66796875,20.01953125,1758405226.1894114,1758405226.1951177
5.859375,489.74609375,371.58203125,9.765625,1758405226.1930346,1758405226.199024
22.4609375,244.62890625,94.23828125,15.625,1758405226.196658,1758405226.2029302
28.80859375,135.25390625,7.8125,25.87890625,1758405226.2004576,1758405226.2068365
28.80859375,450.1953125,202.63671875,27.34375,1758405226.2042572,1758405226.2107427
21.97265625,463.37890625,118.1640625,12.6953125,1758405226.208057,1758405226.214649
31.25,201.171875,-84.47265625,21.97265625,1758405226.2118566,1758405226.2185552
44.921875,124.51171875,-115.234375,28.80859375,1758405226.2156563,1758405226.2224615
43.45703125,-26.85546875,-187.98828125,27.34375,1758405226.2194562,1758405226.2263677
34.66796875,-95.21484375,-167.48046875,15.13671875,1758405226.2232559,1758405226.230274
38.0859375,-508.30078125,-489.74609375,18.06640625,1758405226.2270555,1758405226.2341802
35.64453125,-768.06640625,-635.25390625,21.97265625,1758405226.2308552,1758405226.2380865
27.83203125,222.65625,262.20703125,7.32421875,1758405226.234655,1758405226.2419927
36.1328125,464.35546875,352.5390625,18.5546875,1758405226.2384546,1758405226.245899
38.0859375,119.62890625,-13.18359375,33.203125,1758405226.2422543,1758405226.2498052
33.203125,283.69140625,90.33203125,29.78515625,1758405226.245961,1758405226.2537115
38.0859375,496.09375,198.73046875,28.3203125,1758405226.2496676,1758405226.2576177
36.1328125,281.25,-20.5078125,33.203125,1758405226.2533743,1758405226.261524
32.2265625,90.33203125,-178.22265625,20.5078125,1758405226.257081,1758405226.2654302
37.109375,320.3125,-29.78515625,14.6484375,1758405226.2607877,1758405226.2693365
30.2734375,208.0078125,-120.1171875,19.04296875,1758405226.2644944,1758405226.2732427
18.06640625,-135.7421875,-339.84375,10.7421875,1758405226.2682014,1758405226.277149
24.90234375,-534.66796875,-585.44921875,12.6953125,1758405226.271908,1758405226.2810552
32.71484375,-51.26953125,-174.31640625,14.16015625,1758405226.2756147,1758405226.2849615
37.109375,366.69921875,94.7265625,14.16015625,1758405226.2793214,1758405226.2888677
42.96875,-195.3125,-358.3984375,19.53125,1758405226.2830281,1758405226.292774
36.1328125,-270.5078125,-394.53125,20.99609375,1758405226.2867348,1758405226.2966802
29.296875,351.5625,75.1953125,12.20703125,1758405226.2904983,1758405226.3005865
33.203125,520.99609375,111.81640625,11.23046875,1758405226.2942617,1758405226.3044927
23.4375,137.20703125,-246.58203125,14.16015625,1758405226.2980251,1758405226.308399
13.671875,121.58203125,-245.60546875,7.32421875,1758405226.3017886,1758405226.3123052
7.32421875,354.00390625,-113.76953125,1.46484375,1758405226.305552,1758405226.3162115
10.25390625,127.44140625,-268.5546875,3.41796875,1758405226.3093157,1758405226.3201177
14.6484375,-570.3125,-715.33203125,16.11328125,1758405226.313079,1758405226.324024
2.9296875,-603.02734375,-673.828125,11.71875,1758405226.3168426,1758405226.3279302
0.48828125,301.26953125,35.15625,-1.953125,1758405226.320606,1758405226.3318365
7.8125,351.5625,-3.41796875,1.953125,1758405226.3243694,1758405226.3357427
12.6953125,120.1171875,-248.046875,5.859375,1758405226.3281329,1758405226.339649
9.27734375,24.4140625,-316.40625,2.9296875,1758405226.3318963,1758405226.3435552
-2.9296875,47.8515625,-266.6015625,-4.39453125,1758405226.335751,1758405226.3474615
-2.44140625,140.13671875,-222.16796875,-1.46484375,1758405226.3396058,1758405226.3513677
-5.37109375,-212.890625,-400.87890625,-4.39453125,1758405226.3434603,1758405226.355274
-32.71484375,-38.57421875,-172.36328125,-37.109375,1758405226.347315,1758405226.3591802
-47.36328125,271.484375,-20.5078125,-58.10546875,1758405226.3511698,1758405226.3630865
-55.6640625,-201.171875,-371.09375,-62.98828125,1758405226.3550243,1758405226.3669927
-57.12890625,-715.8203125,-697.265625,-56.15234375,1758405226.358879,1758405226.370899
-50.29296875,-162.109375,-148.4375,-54.6875,1758405226.3627338,1758405226.3748052
-58.10546875,347.16796875,239.2578125,-56.15234375,1758405226.3665886,1758405226.3787115
-61.03515625,-12.6953125,-119.140625,-55.6640625,1758405226.3704433,1758405226.3826177
-58.10546875,-90.33203125,-114.2578125,-66.40625,1758405226.3742979,1758405226.386524
-59.5703125,224.609375,163.0859375,-67.87109375,1758405226.3781526,1758405226.3904302
-56.640625,283.203125,216.796875,-62.98828125,1758405226.3831577,1758405226.3943365
-49.8046875,-77.63671875,-38.57421875,-50.29296875,1758405226.3881626,1758405226.3982427
-44.921875,-348.14453125,-126.953125,-44.921875,1758405226.3931677,1758405226.402149
-40.0390625,19.04296875,201.171875,-45.8984375,1758405226.3981729,1758405226.4060552
-35.64453125,194.82421875,335.9375,-36.62109375,1758405226.4031777,1758405226.4099615
-34.1796875,-508.30078125,-253.90625,-25.87890625,1758405226.4081829,1758405226.4138677
-32.71484375,-880.859375,-534.1796875,-20.99609375,1758405226.413188,1758405226.417774
-29.78515625,-34.66796875,441.40625,-24.4140625,1758405226.4181929,1758405226.4216802
-36.62109375,224.609375,674.31640625,-24.4140625,1758405226.423198,1758405226.4255865
-37.59765625,-45.8984375,372.55859375,-30.2734375,1758405226.428203,1758405226.4294927
-35.64453125,-32.71484375,380.859375,-37.109375,1758405226.433208,1758405226.433399
-30.76171875,58.10546875,448.73046875,-37.109375,1758405226.438213,1758405226.4373052
-10.7421875,49.31640625,437.5,-17.578125,1758405226.4418316,1758405226.4412115
-16.11328125,-149.4140625,265.625,-8.30078125,1758405226.4454503,1758405226.4451177
-45.41015625,-7.32421875,356.93359375,-33.69140625,1758405226.4490688,1758405226.449024
-48.828125,200.68359375,487.3046875,-46.875,1758405226.4526875,1758405226.4529302
-38.57421875,-74.70703125,252.9296875,-36.62109375,1758405226.456306,1758405226.4568365
-40.0390625,-631.8359375,-111.328125,-29.78515625,1758405226.4599247,1758405226.4607427
-43.45703125,-528.3203125,60.05859375,-31.25,1758405226.4635432,1758405226.464649
-31.73828125,44.921875,476.07421875,-28.3203125,1758405226.4671617,1758405226.4685552
-19.53125,-42.48046875,362.3046875,-27.34375,1758405226.4707804,1758405226.4724615
-34.1796875,-904.78515625,-467.7734375,-19.53125,1758405226.4743989,1758405226.4763677
-54.19921875,-485.83984375,-58.10546875,-27.34375,1758405226.4780176,1758405226.480274
-50.29296875,316.89453125,661.62109375,-39.55078125,1758405226.481636,1758405226.4841802
-28.80859375,32.2265625,310.05859375,-26.3671875,1758405226.4854066,1758405226.4880865
-25.87890625,-109.375,139.6484375,-24.90234375,1758405226.4891772,1758405226.4919927
-25.390625,177.734375,295.8984375,-32.2265625,1758405226.4929478,1758405226.495899
-19.53125,241.69921875,305.6640625,-17.578125,1758405226.4967184,1758405226.4998052
-20.5078125,-88.37890625,11.71875,-9.765625,1758405226.500489,1758405226.5037115
-20.5078125,-376.953125,-175.29296875,-8.30078125,1758405226.5042596,1758405226.5076177
-20.99609375,-416.015625,-179.19921875,-8.30078125,1758405226.5080302,1758405226.511524
-24.4140625,-266.11328125,6.8359375,-17.08984375,1758405226.5118008,1758405226.5154302
-17.578125,-600.09765625,-312.98828125,-15.13671875,1758405226.5155714,1758405226.5193365
-9.765625,-798.33984375,-543.45703125,-1.46484375,1758405226.519342,1758405226.5232427
-15.13671875,70.80078125,288.57421875,-7.8125,1758405226.5231125,1758405226.527149
-8.30078125,225.5859375,336.42578125,-15.13671875,1758405226.5268831,1758405226.5310552
-9.27734375,-45.41015625,16.11328125,-16.11328125,1758405226.5306253,1758405226.5349615
-18.5546875,193.359375,181.640625,-18.5546875,1758405226.5343678,1758405226.5388677
-16.11328125,383.30078125,273.92578125,-19.04296875,1758405226.53811,1758405226.542774
-11.23046875,90.33203125,-28.80859375,-17.578125,1758405226.5418522,1758405226.5466802
-9.27734375,-182.6171875,-251.953125,-16.11328125,1758405226.5455947,1758405226.5505865
-4.8828125,-239.74609375,-228.515625,-7.32421875,1758405226.549337,1758405226.5544927
-6.8359375,-89.84375,-114.2578125,-11.71875,1758405226.5530791,1758405226.558399
-20.5078125,-115.72265625,-155.2734375,-24.90234375,1758405226.5568216,1758405226.5623052
-28.80859375,-659.66796875,-573.2421875,-20.01953125,1758405226.5605638,1758405226.5662115
-16.11328125,-429.6875,-336.9140625,-19.53125,1758405226.564306,1758405226.5701177
-15.625,125.48828125,146.484375,-28.3203125,1758405226.5680485,1758405226.574024
-21.97265625,-195.80078125,-175.78125,-24.4140625,1758405226.5717907,1758405226.5779302
-25.87890625,-518.06640625,-404.296875,-25.390625,1758405226.575542,1758405226.5818365
-25.87890625,108.88671875,81.54296875,-33.203125,1758405226.5792933,1758405226.5857427
-17.08984375,235.83984375,101.5625,-26.85546875,1758405226.5830443,1758405226.589649
-24.4140625,-128.90625,-139.16015625,-28.3203125,1758405226.5867956,1758405226.5935552
-30.2734375,-140.13671875,-111.328125,-24.90234375,1758405226.5905468,1758405226.5974615
-25.87890625,-166.9921875,-173.828125,-16.6015625,1758405226.594298,1758405226.6013677
-26.3671875,-295.8984375,-177.24609375,-25.390625,1758405226.5980492,1758405226.605274
-21.484375,-640.13671875,-466.796875,-20.01953125,1758405226.6018004,1758405226.6091802
-22.94921875,-653.80859375,-479.4921875,-17.578125,1758405226.6055517,1758405226.6130865
-19.53125,174.8046875,327.63671875,-29.78515625,1758405226.609303,1758405226.6169927
-8.7890625,250.0,314.94140625,-21.484375,1758405226.613054,1758405226.620899
-6.34765625,-211.9140625,-73.2421875,-9.765625,1758405226.6168053,1758405226.6248052
-16.6015625,-187.01171875,11.23046875,-15.13671875,1758405226.6205566,1758405226.6287115
-19.04296875,288.57421875,352.05078125,-22.4609375,1758405226.6243076,1758405226.6326177
-7.32421875,237.79296875,267.08984375,-15.13671875,1758405226.628059,1758405226.636524
-1.953125,-185.05859375,-29.296875,-18.06640625,1758405226.6318102,1758405226.6404302
-8.7890625,-23.92578125,118.1640625,-20.5078125,1758405226.6355615,1758405226.6443365
-8.30078125,-20.5078125,152.83203125,-18.06640625,1758405226.6393127,1758405226.6482427
-6.34765625,-327.63671875,-23.4375,-25.390625,1758405226.6430638,1758405226.652149
-2.44140625,-643.06640625,-212.890625,-24.4140625,1758405226.646815,1758405226.6560552
-7.8125,-204.58984375,182.6171875,-22.4609375,1758405226.6505663,1758405226.6599615
-20.01953125,360.83984375,572.75390625,-26.3671875,1758405226.6543174,1758405226.6638677
-16.11328125,30.76171875,303.7109375,-23.92578125,1758405226.6580687,1758405226.667774
-13.18359375,-23.4375,290.52734375,-23.4375,1758405226.66182,1758405226.6716802
-16.6015625,335.44921875,518.06640625,-23.4375,1758405226.6656854,1758405226.6755865
-20.01953125,376.953125,489.2578125,-16.6015625,1758405226.6695511,1758405226.6794927
-17.578125,-318.359375,-14.6484375,-16.6015625,1758405226.6734166,1758405226.683399
-15.13671875,-409.66796875,43.45703125,-23.92578125,1758405226.6772823,1758405226.6873052
-18.5546875,275.390625,549.31640625,-32.71484375,1758405226.6811478,1758405226.6912115
-16.11328125,74.70703125,387.20703125,-34.66796875,1758405226.6850133,1758405226.6951177
-6.34765625,-622.55859375,-108.88671875,-20.99609375,1758405226.688879,1758405226.699024
2.44140625,-606.4453125,-41.9921875,-19.04296875,1758405226.6927445,1758405226.7029302
-10.25390625,322.265625,742.1875,-28.80859375,1758405226.6966102,1758405226.7068365
-27.83203125,359.86328125,645.99609375,-31.73828125,1758405226.7004757,1758405226.7107427
-32.2265625,28.3203125,339.84375,-32.2265625,1758405226.7043414,1758405226.714649
-23.4375,237.3046875,497.0703125,-29.78515625,1758405226.708207,1758405226.7185552
-18.5546875,474.12109375,621.09375,-31.25,1758405226.7130687,1758405226.7224615
-21.97265625,284.66796875,421.875,-25.390625,1758405226.7179303,1758405226.7263677
-23.4375,15.13671875,229.4921875,-30.76171875,1758405226.7227921,1758405226.730274
-20.99609375,239.74609375,409.1796875,-40.52734375,1758405226.727654,1758405226.7341802
-15.625,228.515625,375.9765625,-32.71484375,1758405226.7325156,1758405226.7380865
-11.71875,-134.27734375,192.3828125,-22.94921875,1758405226.7373774,1758405226.7419927
-12.20703125,-797.36328125,-402.83203125,-12.20703125,1758405226.7422392,1758405226.745899
-14.6484375,-540.0390625,-177.24609375,-12.20703125,1758405226.7471008,1758405226.7498052
-13.18359375,434.5703125,706.54296875,-17.578125,1758405226.7519627,1758405226.7537115
-13.18359375,183.59375,379.8828125,-15.13671875,1758405226.7568245,1758405226.7576177
-17.578125,30.76171875,211.9140625,-21.484375,1758405226.761686,1758405226.761524
-13.671875,425.29296875,444.3359375,-24.4140625,1758405226.766548,1758405226.7654302
-15.625,537.109375,405.2734375,-21.97265625,1758405226.7702792,1758405226.7693365
-21.97265625,199.21875,75.68359375,-17.08984375,1758405226.7740104,1758405226.7732427
-23.92578125,71.2890625,-72.75390625,-15.13671875,1758405226.777742,1758405226.777149
-25.390625,400.390625,140.13671875,-12.6953125,1758405226.7814732,1758405226.7810552
-19.53125,452.1484375,101.5625,-2.9296875,1758405226.7852044,1758405226.7849615
-11.71875,-187.98828125,-434.08203125,-1.46484375,1758405226.7889357,1758405226.7888677
-15.13671875,-323.73046875,-537.109375,-9.27734375,1758405226.792667,1758405226.792774
-25.390625,37.109375,-273.4375,-15.625,1758405226.7963982,1758405226.7966802
-27.83203125,236.328125,-188.4765625,-17.578125,1758405226.8001294,1758405226.8005865
-19.04296875,-354.4921875,-624.51171875,-8.30078125,1758405226.803861,1758405226.8044927
-25.390625,-782.2265625,-818.359375,-4.8828125,1758405226.8075922,1758405226.808399
-33.203125,99.609375,-211.42578125,-20.01953125,1758405226.8113234,1758405226.8123052
-26.85546875,229.00390625,-238.76953125,-24.4140625,1758405226.8151202,1758405226.8162115
-14.16015625,7.8125,-406.25,-24.4140625,1758405226.818917,1758405226.8201177
-14.6484375,200.68359375,-271.97265625,-31.25,1758405226.8227139,1758405226.824024
-17.578125,380.859375,-214.84375,-33.69140625,1758405226.8265107,1758405226.8279302
-8.7890625,175.29296875,-402.83203125,-26.85546875,1758405226.8303075,1758405226.8318365
-6.34765625,-338.8671875,-756.34765625,-17.578125,1758405226.8341045,1758405226.8357427
-13.671875,-200.68359375,-601.5625,-19.04296875,1758405226.8379014,1758405226.839649
-21.97265625,351.07421875,-229.00390625,-19.53125,1758405226.8416982,1758405226.8435552
-29.78515625,16.11328125,-545.8984375,-21.97265625,1758405226.845495,1758405226.8474615
-30.76171875,-656.25,-877.9296875,-18.06640625,1758405226.8492918,1758405226.8513677
-23.92578125,-250.48828125,-522.4609375,-17.08984375,1758405226.8530886,1758405226.855274
-26.85546875,250.0,-226.5625,-23.4375,1758405226.8568854,1758405226.8591802
-28.3203125,-155.2734375,-532.71484375,-23.4375,1758405226.8606322,1758405226.8630865
-22.4609375,-403.3203125,-732.91015625,-18.5546875,1758405226.864379,1758405226.8669927
-24.4140625,295.41015625,-200.68359375,-20.01953125,1758405226.868126,1758405226.870899
-21.97265625,442.3828125,-157.71484375,-25.390625,1758405226.8718727,1758405226.8748052
-24.90234375,23.92578125,-529.78515625,-24.90234375,1758405226.8756194,1758405226.8787115
-28.3203125,-303.7109375,-674.8046875,-20.5078125,1758405226.8793662,1758405226.8826177
-19.04296875,-68.359375,-462.890625,-16.11328125,1758405226.883113,1758405226.886524
-17.578125,437.98828125,-104.00390625,-25.390625,1758405226.8868597,1758405226.8904302
-21.484375,-277.83203125,-579.1015625,-23.92578125,1758405226.8906064,1758405226.8943365
-36.62109375,-601.07421875,-712.40234375,-20.99609375,1758405226.8943534,1758405226.8982427
-40.0390625,328.125,-17.578125,-32.2265625,1758405226.8981001,1758405226.902149
-24.4140625,171.875,-271.484375,-30.76171875,1758405226.901847,1758405226.9060552
-12.20703125,-190.4296875,-518.5546875,-10.7421875,1758405226.9055998,1758405226.9099615
5.37109375,116.69921875,-185.05859375,2.9296875,1758405226.9093528,1758405226.9138677
-13.671875,411.1328125,-1.953125,-29.296875,1758405226.9131057,1758405226.917774
-50.29296875,244.62890625,-132.8125,-57.12890625,1758405226.9168587,1758405226.9216802
-48.33984375,-17.08984375,-262.6953125,-55.6640625,1758405226.9206116,1758405226.9255865
-45.41015625,-104.00390625,-234.375,-51.7578125,1758405226.9243646,1758405226.9294927
-58.59375,57.6171875,-49.31640625,-60.546875,1758405226.9281173,1758405226.933399
-43.45703125,145.99609375,23.4375,-61.03515625,1758405226.9318702,1758405226.9373052
-43.45703125,-522.94921875,-444.3359375,-60.546875,1758405226.9356232,1758405226.9412115
-62.98828125,-150.390625,-57.6171875,-77.1484375,1758405226.939376,1758405226.9451177
-52.734375,480.95703125,396.97265625,-74.21875,1758405226.943129,1758405226.949024
-51.26953125,119.62890625,83.49609375,-78.125,1758405226.946882,1758405226.9529302
-59.5703125,13.671875,51.26953125,-82.03125,1758405226.9518852,1758405226.9568365
-56.15234375,341.796875,279.78515625,-80.078125,1758405226.9568887,1758405226.9607427
-47.8515625,215.8203125,175.29296875,-75.1953125,1758405226.961892,1758405226.964649
-46.875,-312.98828125,-142.578125,-69.82421875,1758405226.966895,1758405226.9685552
-50.29296875,-214.35546875,-8.30078125,-71.77734375,1758405226.9718986,1758405226.9724615
-56.15234375,61.03515625,206.0546875,-62.98828125,1758405226.9769018,1758405226.9763677
-58.59375,-13.18359375,153.3203125,-56.15234375,1758405226.981905,1758405226.980274
-44.43359375,-480.95703125,-181.640625,-50.78125,1758405226.9869084,1758405226.9841802
-27.83203125,-531.73828125,-181.640625,-51.7578125,1758405226.9919116,1758405226.9880865
-22.94921875,401.85546875,511.71875,-57.6171875,1758405226.9969149,1758405226.9919927
-23.92578125,394.04296875,384.765625,-48.33984375,1758405227.0019183,1758405226.995899
-27.34375,56.640625,82.03125,-50.78125,1758405227.0069215,1758405226.9998052
-22.4609375,243.1640625,227.5390625,-55.6640625,1758405227.009433,1758405227.0037115
-24.4140625,480.95703125,377.44140625,-61.5234375,1758405227.0119448,1758405227.0076177
-33.69140625,269.04296875,204.58984375,-52.734375,1758405227.0144563,1758405227.011524
-31.73828125,104.4921875,94.23828125,-46.875,1758405227.016968,1758405227.0154302
-29.78515625,211.9140625,146.97265625,-52.734375,1758405227.0194795,1758405227.0193365
-33.203125,71.2890625,68.84765625,-51.7578125,1758405227.0219913,1758405227.0232427
-27.34375,-217.7734375,-54.6875,-46.38671875,1758405227.0245028,1758405227.027149
-21.97265625,-543.45703125,-235.83984375,-39.0625,1758405227.0270143,1758405227.0310552
-24.90234375,-90.33203125,189.94140625,-43.9453125,1758405227.029526,1758405227.0349615
-17.08984375,502.44140625,600.5859375,-46.38671875,1758405227.0320375,1758405227.0388677
-14.6484375,66.40625,210.44921875,-32.71484375,1758405227.0345492,1758405227.042774
-13.18359375,-584.47265625,-165.0390625,-18.06640625,1758405227.0370607,1758405227.0466802
-2.44140625,55.17578125,412.59765625,-20.01953125,1758405227.0407841,1758405227.0505865
-9.765625,517.08984375,727.5390625,-28.80859375,1758405227.0445075,1758405227.0544927
-16.11328125,103.02734375,381.8359375,-35.64453125,1758405227.0482306,1758405227.058399
-19.04296875,155.76171875,458.49609375,-41.50390625,1758405227.051954,1758405227.0623052
-17.578125,398.4375,618.65234375,-42.48046875,1758405227.0556774,1758405227.0662115
-6.34765625,187.5,442.87109375,-41.9921875,1758405227.0594008,1758405227.0701177
-7.8125,-443.84765625,34.66796875,-40.0390625,1758405227.0631242,1758405227.074024
-22.4609375,-675.78125,-59.5703125,-33.203125,1758405227.0668476,1758405227.0779302
-35.15625,269.04296875,678.7109375,-39.55078125,1758405227.070571,1758405227.0818365
-31.73828125,571.77734375,794.921875,-41.9921875,1758405227.074294,1758405227.0857427
-30.2734375,-2.9296875,301.7578125,-33.203125,1758405227.0780175,1758405227.089649
-33.203125,48.828125,319.3359375,-39.0625,1758405227.0817409,1758405227.0935552
-31.25,566.89453125,676.7578125,-41.50390625,1758405227.0866263,1758405227.0974615
-22.4609375,410.15625,514.6484375,-32.2265625,1758405227.0915117,1758405227.1013677
-18.5546875,126.46484375,245.1171875,-30.76171875,1758405227.0963972,1758405227.105274
-28.3203125,308.10546875,397.94921875,-29.78515625,1758405227.1012826,1758405227.1091802
-28.3203125,424.8046875,459.9609375,-35.15625,1758405227.106168,1758405227.1130865
-14.16015625,66.40625,188.4765625,-27.34375,1758405227.1110535,1758405227.1169927
-6.8359375,-544.43359375,-150.87890625,-20.5078125,1758405227.1159387,1758405227.120899
-15.13671875,-126.46484375,242.1875,-25.87890625,1758405227.120824,1758405227.1248052
-20.99609375,552.24609375,661.1328125,-34.1796875,1758405227.1257095,1758405227.1287115
-25.390625,108.3984375,254.8828125,-41.015625,1758405227.130595,1758405227.1326177
-24.4140625,-105.95703125,145.5078125,-37.59765625,1758405227.1354804,1758405227.136524
-21.97265625,424.31640625,576.171875,-27.83203125,1758405227.1403658,1758405227.1404302
-18.5546875,573.73046875,601.07421875,-20.5078125,1758405227.1455355,1758405227.1443365
-13.18359375,62.5,152.34375,-14.6484375,1758405227.1507053,1758405227.1482427
-11.71875,-57.6171875,108.88671875,-16.6015625,1758405227.155875,1758405227.152149
-11.23046875,434.08203125,521.97265625,-20.99609375,1758405227.1610446,1758405227.1560552
-12.6953125,461.42578125,442.87109375,-17.578125,1758405227.1662142,1758405227.1599615
-14.6484375,-290.52734375,-105.95703125,-14.16015625,1758405227.1713839,1758405227.1638677
-16.11328125,-423.828125,-94.7265625,-14.6484375,1758405227.1765537,1758405227.167774
-15.13671875,370.60546875,500.0,-16.11328125,1758405227.1817234,1758405227.1716802
-20.01953125,406.25,450.1953125,-15.13671875,1758405227.186893,1758405227.1755865
-30.76171875,-162.59765625,-8.30078125,-10.25390625,1758405227.1920629,1758405227.1794927
-41.015625,-85.9375,103.515625,-18.5546875,1758405227.1972325,1758405227.183399
-30.2734375,378.90625,385.7421875,-24.4140625,1758405227.202402,1758405227.1873052
-22.4609375,63.96484375,104.4921875,-19.04296875,1758405227.2048495,1758405227.1912115
-28.3203125,-178.22265625,-37.109375,-24.90234375,1758405227.2072968,1758405227.1951177
-29.78515625,112.79296875,164.55078125,-24.4140625,1758405227.2097442,1758405227.199024
-20.01953125,407.2265625,306.640625,-20.5078125,1758405227.2121916,1758405227.2029302
-16.6015625,257.32421875,125.0,-18.06640625,1758405227.214639,1758405227.2068365
-21.97265625,-580.078125,-560.546875,-12.20703125,1758405227.2170863,1758405227.2107427
-24.4140625,-442.3828125,-346.19140625,-11.71875,1758405227.2195337,1758405227.214649
-8.7890625,451.171875,359.375,-7.8125,1758405227.221981,1758405227.2185552
-7.32421875,125.0,-28.80859375,-0.9765625,1758405227.2244284,1758405227.2224615
-30.2734375,-310.546875,-353.515625,0.0,1758405227.2268758,1758405227.2263677
-27.34375,199.70703125,44.43359375,-12.20703125,1758405227.2293231,1758405227.230274
-19.04296875,424.8046875,126.46484375,-14.6484375,1758405227.2317705,1758405227.2341802
-13.18359375,58.59375,-215.8203125,-12.6953125,1758405227.2356348,1758405227.2380865
-13.671875,9.27734375,-280.76171875,-14.16015625,1758405227.239499,1758405227.2419927
-15.13671875,77.1484375,-266.6015625,-16.6015625,1758405227.2433634,1758405227.245899
-11.23046875,69.3359375,-266.6015625,-21.484375,1758405227.2472277,1758405227.2498052
-11.71875,-154.296875,-390.625,-10.7421875,1758405227.251092,1758405227.2537115
-15.13671875,-523.92578125,-583.984375,-9.27734375,1758405227.2549562,1758405227.2576177
-17.08984375,-86.42578125,-252.44140625,-16.6015625,1758405227.2588208,1758405227.261524
-18.5546875,363.76953125,10.7421875,-20.01953125,1758405227.262685,1758405227.2654302
-13.671875,-357.91015625,-548.828125,-17.08984375,1758405227.2665493,1758405227.2693365
-15.13671875,-597.65625,-694.3359375,-14.16015625,1758405227.2704136,1758405227.2732427
-18.5546875,225.5859375,-85.44921875,-23.4375,1758405227.274278,1758405227.277149
-14.6484375,-38.57421875,-335.9375,-21.484375,1758405227.2781422,1758405227.2810552
-13.18359375,-100.5859375,-375.48828125,-31.25,1758405227.2817547,1758405227.2849615
-19.53125,286.62109375,-106.4453125,-36.1328125,1758405227.2853673,1758405227.2888677
-27.34375,434.08203125,-117.67578125,-30.76171875,1758405227.2889798,1758405227.292774
-23.92578125,217.7734375,-374.51171875,-30.2734375,1758405227.2925923,1758405227.2966802
-28.80859375,-159.1796875,-672.36328125,-31.25,1758405227.2962048,1758405227.3005865
-38.0859375,-195.3125,-646.484375,-30.76171875,1758405227.2998176,1758405227.3044927
-44.921875,-154.296875,-582.03125,-35.15625,1758405227.30343,1758405227.308399
-38.0859375,-182.12890625,-633.30078125,-35.15625,1758405227.3070426,1758405227.3123052
-27.34375,-791.9921875,-974.12109375,-15.625,1758405227.310655,1758405227.3162115
-28.3203125,-487.3046875,-629.8828125,-18.5546875,1758405227.3142676,1758405227.3201177
-26.3671875,486.328125,-20.99609375,-34.66796875,1758405227.3178802,1758405227.324024
-32.71484375,182.6171875,-403.80859375,-34.1796875,1758405227.3214927,1758405227.3279302
-34.1796875,59.08203125,-562.5,-33.69140625,1758405227.325287,1758405227.3318365
-31.25,411.1328125,-340.33203125,-37.59765625,1758405227.3290815,1758405227.3357427
-15.13671875,424.8046875,-344.7265625,-20.5078125,1758405227.332876,1758405227.339649
-11.23046875,137.6953125,-567.3828125,-11.23046875,1758405227.3366704,1758405227.3435552
-42.48046875,103.02734375,-634.765625,-56.15234375,1758405227.3404648,1758405227.3474615
-67.87109375,38.57421875,-627.44140625,-74.70703125,1758405227.3442593,1758405227.3513677
-59.08203125,-35.64453125,-672.36328125,-71.77734375,1758405227.348054,1758405227.355274
-49.8046875,-457.03125,-821.77734375,-67.87109375,1758405227.3518484,1758405227.3591802
-68.359375,-789.0625,-860.3515625,-68.84765625,1758405227.3556428,1758405227.3630865
-97.16796875,139.16015625,-279.296875,-95.21484375,1758405227.3594372,1758405227.3669927
-93.75,433.59375,-187.01171875,-103.02734375,1758405227.3632317,1758405227.370899
-85.44921875,147.4609375,-459.9609375,-104.98046875,1758405227.367026,1758405227.3748052
-87.40234375,280.76171875,-422.8515625,-118.1640625,1758405227.3707616,1758405227.3787115
-88.37890625,521.484375,-292.48046875,-118.65234375,1758405227.3744974,1758405227.3826177
-77.63671875,370.60546875,-394.53125,-116.2109375,1758405227.378233,1758405227.386524
-74.21875,143.5546875,-600.5859375,-135.7421875,1758405227.3819685,1758405227.3904302
-84.47265625,267.578125,-576.171875,-134.765625,1758405227.385704,1758405227.3943365
-76.171875,80.078125,-700.1953125,-121.58203125,1758405227.3894396,1758405227.3982427
-76.171875,-185.05859375,-835.9375,-131.8359375,1758405227.3931754,1758405227.402149
-68.84765625,-535.15625,-895.5078125,-132.32421875,1758405227.396911,1758405227.4060552
-76.66015625,-106.4453125,-562.98828125,-121.58203125,1758405227.4006464,1758405227.4099615
-76.171875,392.08984375,-414.55078125,-112.3046875,1758405227.4043822,1758405227.4138677
-97.65625,-160.15625,-812.5,-100.5859375,1758405227.4081178,1758405227.417774
-132.8125,-248.046875,-791.50390625,-78.125,1758405227.4118533,1758405227.4216802
-113.28125,373.046875,-464.35546875,-83.984375,1758405227.4156098,1758405227.4255865
-100.5859375,550.78125,-455.078125,-89.84375,1758405227.4193664,1758405227.4294927
-72.265625,183.10546875,-751.46484375,-67.87109375,1758405227.423123,1758405227.433399
-46.875,177.24609375,-766.6015625,-57.12890625,1758405227.4268794,1758405227.4373052
-55.6640625,422.8515625,-584.9609375,-53.22265625,1758405227.430636,1758405227.4412115
-36.62109375,194.82421875,-808.10546875,-40.52734375,1758405227.4343925,1758405227.4451177
-18.5546875,-504.39453125,-1000.0,-38.57421875,1758405227.438149,1758405227.449024
-2.44140625,-560.05859375,-805.6640625,-41.015625,1758405227.4419055,1758405227.4529302
34.66796875,415.0390625,-382.32421875,-39.0625,1758405227.445662,1758405227.4568365
50.29296875,474.609375,-496.09375,-42.48046875,1758405227.4494185,1758405227.4607427
-26.85546875,174.31640625,-710.44921875,-21.97265625,1758405227.453175,1758405227.464649
-76.66015625,229.4921875,-646.484375,-7.32421875,1758405227.4569316,1758405227.4685552
-61.03515625,158.203125,-709.9609375,-11.71875,1758405227.4607818,1758405227.4724615
-60.546875,91.796875,-683.59375,0.48828125,1758405227.464632,1758405227.4763677
-39.0625,-148.92578125,-718.26171875,7.8125,1758405227.4684825,1758405227.480274
-13.18359375,49.8046875,-500.0,-1.46484375,1758405227.4723327,1758405227.4841802
-1.953125,409.66796875,-285.15625,-11.71875,1758405227.476183,1758405227.4880865
-0.9765625,43.9453125,-554.6875,-4.39453125,1758405227.4800332,1758405227.4919927
-5.859375,-580.56640625,-804.19921875,6.8359375,1758405227.4838834,1758405227.495899
0.9765625,-121.09375,-288.0859375,-1.953125,1758405227.4877336,1758405227.4998052
20.01953125,603.515625,204.1015625,-11.71875,1758405227.4915838,1758405227.5037115
41.50390625,220.703125,-128.41796875,-8.7890625,1758405227.4954343,1758405227.5076177
28.80859375,28.80859375,-243.65234375,2.9296875,1758405227.4992845,1758405227.511524
-39.0625,388.671875,61.5234375,9.27734375,1758405227.5031347,1758405227.5154302
-43.45703125,540.52734375,181.640625,3.90625,1758405227.5080824,1758405227.5193365
-6.34765625,69.3359375,-163.57421875,-2.9296875,1758405227.51303,1758405227.5232427
-3.41796875,-356.4453125,-417.96875,-4.39453125,1758405227.5179775,1758405227.527149
-19.53125,64.453125,-46.38671875,-10.25390625,1758405227.5229251,1758405227.5310552
-22.94921875,464.84375,211.42578125,-17.08984375,1758405227.5278728,1758405227.5349615
-3.90625,-230.95703125,-313.96484375,-11.71875,1758405227.5328202,1758405227.5388677
3.90625,-858.3984375,-749.51171875,-8.30078125,1758405227.537768,1758405227.542774
-5.859375,80.56640625,42.48046875,-22.94921875,1758405227.5427155,1758405227.5466802
-26.3671875,497.55859375,357.421875,-27.83203125,1758405227.5476632,1758405227.5505865
-39.55078125,201.171875,74.70703125,-22.94921875,1758405227.5526109,1758405227.5544927
-48.33984375,319.82421875,150.390625,-26.3671875,1758405227.5575583,1758405227.558399
-38.0859375,512.20703125,236.328125,-33.69140625,1758405227.562506,1758405227.5623052
-18.06640625,325.1953125,6.34765625,-31.73828125,1758405227.5661736,1758405227.5662115
-10.7421875,106.4453125,-161.62109375,-21.97265625,1758405227.569841,1758405227.5701177
-19.53125,297.36328125,-12.6953125,-15.625,1758405227.5735085,1758405227.574024
