,TP9,AF7,AF8,TP10,board_ts,unix_ts
0,2.8116658969840445,56.04300112274705,-103.32760573686338,2.216850990314946,1758422950.2573793,1758422950.2821953
1,5.485604685883133,167.2667477732457,-262.8768205602468,5.576309116876852,1758422950.2611554,1758422950.2861016
2,0.1359271337050516,176.4815423883444,-226.91994581569966,4.78034053174752,1758422950.2649312,1758422950.2900078
3,-1.4306541297300246,120.63976805073105,-210.51427060390415,2.995381740293613,1758422950.2687073,1758422950.293914
4,2.189639823612506,124.51408303068422,-315.65094856991914,1.8374755569986476,1758422950.2724833,1758422950.2978203
5,-5.278377121936828,121.45232800513077,-270.60018372297986,-1.8924891319214012,1758422950.2762594,1758422950.3017266
6,-5.995860351465012,145.21873125475076,-211.75713595429988,-5.702993447120107,1758422950.2800355,1758422950.3056328
7,3.754900342355228,166.96913285088067,-212.67760209257176,-7.225272278466264,1758422950.2838116,1758422950.309539
8,0.37595018343288444,84.58893806897686,-291.7246361821908,-5.429661722416284,1758422950.2875876,1758422950.3134453
9,-4.529240273756166,115.49447218509158,-306.52506644368805,-4.657914836733298,1758422950.2913635,1758422950.3173516
10,-7.273364750142761,250.890958430693,-68.73064519815853,-10.220722358865373,1758422950.2951396,1758422950.3212578
11,-17.03914898290381,166.7863451692101,-110.53229173960972,-18.8738948016767,1758422950.2989156,1758422950.325164
12,-18.52416927230015,90.8408621290182,-313.94813857054214,-23.778993099542447,1758422950.3026633,1758422950.3290703
13,-19.454222274636884,192.71237941882464,-167.24181603439501,-20.612016629652572,1758422950.3064108,1758422950.3329766
14,-30.497158124036808,162.87465093264473,-130.13257823339154,-11.116893233356862,1758422950.3101583,1758422950.3368828
15,-30.24729449887448,106.60134376334827,-265.0111457203129,-5.186813718608931,1758422950.313906,1758422950.340789
16,-24.017199461714284,158.26959859640556,-230.08739264959513,-4.07577344428114,1758422950.3176537,1758422950.3446953
17,-27.581731989315017,150.10721455071325,-195.50097360219297,-2.206714928367319,1758422950.3214011,1758422950.3486016
18,-32.4761717646432,112.33458233787678,-224.0674616598626,-11.201580400175544,1758422950.3251486,1758422950.3525078
19,-35.738120938297016,96.24859740845568,-264.8524396583307,-22.7907128952869,1758422950.3288963,1758422950.356414
20,-27.332381341062273,91.69959886349898,-301.1198826580294,-14.46480687469716,1758422950.332644,1758422950.3603203
21,-14.572515846690749,158.6683063761484,-163.36621326181194,-2.3946335937765753,1758422950.3363914,1758422950.3642266
22,-17.043667139267427,157.8917728157503,-86.56492779125256,-2.7465229283886856,1758422950.340139,1758422950.3681328
23,-15.657077677113648,74.12631962595333,-251.91319508516608,-1.7362889220880788,1758422950.3438866,1758422950.372039
24,-9.19587807229368,161.15788313772646,-188.63358385900938,3.2805464558261974,1758422950.3476512,1758422950.3759453
25,-11.84769435162707,197.85741232604778,-69.54069663687551,-2.7740670656132806,1758422950.351416,1758422950.3798516
26,-9.161932573015747,60.70391603191092,-230.76241855988337,-12.005438953301564,1758422950.3551807,1758422950.3837578
27,-0.26133460642495265,40.43896562697773,-288.9864532207139,-13.609351629798766,1758422950.3589454,1758422950.387664
28,-2.2560263697000664,76.70208223520603,-223.10043028602377,-11.050246953189571,1758422950.36271,1758422950.3915703
29,-8.060641849809599,69.82906724500208,-209.31658674951177,-3.6550462135310227,1758422950.3664746,1758422950.3954766
30,6.885755899064861,50.47346592613758,-229.0329010682326,3.7415977648961416,1758422950.3702395,1758422950.3993828
31,21.77898223023658,40.86788544538285,-234.86995201681566,16.5327340508652,1758422950.3740041,1758422950.403289
32,0.18655846784531604,112.82263944471197,-128.542430914531,16.58394156707118,1758422950.3777688,1758422950.4071953
33,-14.139613988073506,166.37258643835958,-19.398536775916,1.0435257191488745,1758422950.3815336,1758422950.4111016
34,16.931200922642347,91.59719586929714,-103.80077319650445,16.562405976542777,1758422950.3852983,1758422950.4150078
35,37.078695214026084,48.06438225299644,-219.34015206350887,33.67079335236713,1758422950.389063,1758422950.418914
36,34.63394133438669,102.0595082577056,-146.15170098931412,29.87660391624422,1758422950.3941693,1758422950.4228203
37,48.6992624097893,113.35535952953796,-81.10759464002331,37.63650439371304,1758422950.399276,1758422950.4267266
38,50.99286469413255,70.17216328655195,-137.59861642718897,40.022688878146255,1758422950.4043825,1758422950.4306328
39,42.030011401285265,34.94270644283097,-178.75007202319102,41.95509161407654,1758422950.409489,1758422950.434539
40,57.17970279178553,82.31346828218375,-88.66906788854976,54.46376149407115,1758422950.4145956,1758422950.4384453
41,64.89790752684075,97.99720869990415,-13.875440879695816,54.527772962379004,1758422950.419702,1758422950.4423516
42,45.727639704147805,-13.200404353367048,-175.37355743563967,46.904265996968206,1758422950.4248085,1758422950.4462578
43,30.851228260502467,-7.802304017706774,-221.7561500010779,44.058845079069215,1758422950.4299152,1758422950.450164
44,30.867403777617255,93.04317073746643,-4.087846069596708,39.03002425785826,1758422950.4350216,1758422950.4540703
45,28.637159548847194,69.31582971228636,24.352718185458798,23.760871323182528,1758422950.440128,1758422950.4579766
46,22.779933424553747,0.9669560742477188,-142.22611069021514,13.12861096563529,1758422950.4452348,1758422950.4618828
47,22.318018537675016,42.52827763883397,-118.57032021833584,14.92561953411223,1758422950.4503412,1758422950.465789
48,26.604423727044377,85.36385749050532,-24.030697985144798,17.92074663368271,1758422950.4538867,1758422950.4696953
49,33.07704589850073,24.783032632025424,-102.16197485389421,19.51267537087847,1758422950.4574323,1758422950.4736016
50,27.66121148412003,-6.820678959978977,-160.21229706262238,9.19227172794399,1758422950.4609778,1758422950.4775078
51,14.199783219500205,21.78319418625324,-117.2959352125763,-0.2431790881012148,1758422950.4645233,1758422950.481414
52,10.238906205127023,65.34372574192821,-37.8220116404118,6.752294333842656,1758422950.4680688,1758422950.4853203
53,8.372850320204634,27.802048324694624,-67.21978637215216,3.543042236503652,1758422950.4716144,1758422950.4892266
54,8.161419974341698,-49.790108410670655,-187.4517735427362,-5.618203015579638,1758422950.47516,1758422950.4931328
55,7.523016618654765,27.639441401988734,-75.89122138707899,-8.480664373209493,1758422950.4787054,1758422950.497039
56,3.6542455837507077,79.90310151837184,44.04622097249376,-20.39363779322821,1758422950.482251,1758422950.5009453
57,9.29681588069434,-15.718170596926939,-94.97673357254826,-18.558992447811534,1758422950.4857965,1758422950.5048516
58,19.7664976637775,-75.56848691467894,-243.2243329026387,9.426072685216013,1758422950.489342,1758422950.5087578
59,21.786511594483272,20.779609902354423,-147.22536866017617,23.80136640916453,1758422950.4928875,1758422950.512664
60,20.92221639776062,142.0279152560979,104.84340388566488,19.23500714466809,1758422950.4966912,1758422950.5165703
61,29.526036885477424,34.75922317960067,20.92282034730306,23.313500980484605,1758422950.5004952,1758422950.5204766
62,32.549321461611726,-33.75960599645623,-182.67038698261604,26.874747376240066,1758422950.5042992,1758422950.5243828
63,19.36797695882842,72.5552917526802,-43.124532279442064,19.093674768434994,1758422950.508103,1758422950.528289
64,8.618080372665418,25.24421555295703,-10.648304070753511,12.412888101650424,1758422950.5119066,1758422950.5321953
65,5.42199874398716,-51.36969583333121,-160.4561978401034,5.094433624793055,1758422950.5157106,1758422950.5361016
66,0.4620556764878643,-18.96548428965616,-159.65081831539283,4.025968127616579,1758422950.5195146,1758422950.5400078
67,-3.6897647605314887,27.357733584329253,-56.65508413140196,14.36845249243197,1758422950.5233183,1758422950.543914
68,8.355081848510792,54.390856119192904,21.152111655974295,17.56311189004373,1758422950.527122,1758422950.5478203
69,20.970743384810135,-14.009852886752924,-97.31010480108671,22.855725696266745,1758422950.530926,1758422950.5517266
70,11.869421442522253,-52.42848999038688,-226.79984664707445,32.27930154069509,1758422950.53473,1758422950.5556328
71,5.852592947857374,69.3128247304121,3.531427842390258,24.783368931748555,1758422950.5385337,1758422950.559539
72,15.018862549994537,100.39342029276304,154.87862743472215,19.27601959443564,1758422950.542316,1758422950.5634453
73,28.011370589404578,-8.50938214251073,-80.12507627415471,30.300941388557476,1758422950.5460982,1758422950.5673516
74,42.15017556739531,52.36856946267653,-53.3310759801534,40.244835729025,1758422950.5498805,1758422950.5712578
75,46.093841257034,126.45109665463679,130.142830798286,44.988178694338785,1758422950.5536628,1758422950.575164
76,37.42601018453661,33.25401071959641,-12.30267199332593,36.7175539231921,1758422950.557445,1758422950.5790703
77,26.408131563206553,5.404055689636152,-105.08182078838581,16.552910236410753,1758422950.5612273,1758422950.5829766
78,15.253439441832597,46.22421320906142,-29.29931298189331,10.416405465695789,1758422950.5650094,1758422950.5868828
79,17.79940352320682,82.30121106101433,45.59579926868901,13.972032105481048,1758422950.5687916,1758422950.590789
80,40.63392711357574,52.59627401345642,6.6122291763313115,27.081185848557652,1758422950.572574,1758422950.5946953
81,39.21903494282196,-32.82748731342144,-148.04113425139803,37.70577207367387,1758422950.5763562,1758422950.5986016
82,-9.037147223532884,60.232527838030364,-60.996735351393,1.2499631746450177,1758422950.5801384,1758422950.6025078
83,-39.18753908912913,183.33572180510964,163.97399881808087,-35.64308147370866,1758422950.5839207,1758422950.606414
84,-26.18392128241976,78.052293953544,61.93234729429241,-30.339562760334957,1758422950.587654,1758422950.6103203
85,-27.67014663938062,28.59067321656039,-103.52053745568264,-33.87603988086994,1758422950.5913877,1758422950.6142266
86,-49.88235284368966,121.98991204216145,33.90395494794939,-51.20553480401577,1758422950.5951211,1758422950.6181328
87,-68.29256683469248,85.81609303457662,67.63901214546058,-58.91498310935276,1758422950.5988545,1758422950.622039
88,-79.01360224866039,22.381919986160938,-86.85590121918358,-62.77960125977188,1758422950.6025882,1758422950.6259453
89,-88.86812419272974,39.75057686766377,-87.87592282728292,-72.26670564359665,1758422950.6063216,1758422950.6298516
90,-102.84993474429211,59.31851906556403,-21.369544416782446,-85.61522638484894,1758422950.610055,1758422950.6337578
91,-98.50912026146761,79.17330415383913,45.235435707028955,-86.00577617372619,1758422950.6137886,1758422950.637664
92,-105.75348006341301,10.165870363940485,-22.14768747019116,-87.45020685153577,1758422950.617522,1758422950.6415703
93,-127.62800848548432,-47.593021859705914,-181.09133425890468,-87.6396361365114,1758422950.6212554,1758422950.6454766
94,-108.69624154150188,58.6418787894072,-1.3385413227370009,-65.82714513426617,1758422950.624989,1758422950.6493828
95,-89.20662173154778,87.70636432943866,164.82360232481733,-60.907085199520225,1758422950.6287224,1758422950.653289
96,-87.10666318413678,6.218181935139,15.889868980972096,-71.38286481794421,1758422950.632591,1758422950.6571953
97,-78.12408493251496,57.71253247640561,79.05987236381043,-65.62078571318489,1758422950.6364596,1758422950.6611016
98,-77.49553144043784,93.84906118508661,210.62593484728131,-59.215945536958316,1758422950.6403282,1758422950.6650078
99,-66.15991109193055,7.824887551309075,104.97951609548181,-42.51718903348956,1758422950.6441967,1758422950.668914
100,-45.62376382079674,-15.88022770464886,76.09235917381011,-23.602388497118227,1758422950.6480653,1758422950.6728203
101,-35.290579504229754,-3.3812067167600617,119.26576837641187,-26.28249553457863,1758422950.6519337,1758422950.6767266
102,-32.41183419014669,14.131887367519084,155.09812135144603,-25.43104354614843,1758422950.6558022,1758422950.6806328
103,-30.689622564299498,34.78561406861991,213.4448086998891,-17.541323084631586,1758422950.6596708,1758422950.684539
104,-17.185145975823616,-28.441952461376786,137.94412706582807,-10.744159668349312,1758422950.6635394,1758422950.6884453
105,-10.949048951426448,14.156127070309594,170.92511091928463,-1.9164514006151876,1758422950.667408,1758422950.6923516
106,-11.820877234626096,117.01678623643238,378.7344329933403,-1.4310675756751152,1758422950.6712766,1758422950.6962578
107,-2.6908039991740225,0.46629188320366666,254.57167652528733,-0.7150936517973605,1758422950.6751451,1758422950.700164
108,-0.5502277564773976,-52.604698191338684,75.41360375122167,-0.34172541206498863,1758422950.678837,1758422950.7040703
109,-6.374651145404641,50.66387306764955,207.91080349171534,-5.533590670998819,1758422950.6825292,1758422950.7079766
110,-10.399804972536003,34.97135668649571,247.9333477175096,0.23719215431628982,1758422950.6862211,1758422950.7118828
111,-5.241829814553057,-21.501779925602023,129.3088542262558,9.04056108379882,1758422950.6899133,1758422950.715789
112,0.7946903391693922,-14.128556709270924,51.612471069558524,10.72257235876532,1758422950.6936052,1758422950.7196953
113,-7.284071426010087,20.13326176989358,100.8212507996941,6.914688410175586,1758422950.697297,1758422950.7236016
114,-12.299370476688637,12.321801247773692,153.1010777935153,-0.7214013540833548,1758422950.7009892,1758422950.7275078
115,-6.3957321643129035,-33.1135977555532,30.946304010692984,-0.3791843663129839,1758422950.7046812,1758422950.731414
116,-3.822376194683784,-29.512803676188923,-58.77861040155403,6.721109303241974,1758422950.7083733,1758422950.7353203
117,-7.857186812986583,62.234056899673305,103.03360799863003,9.380457774543174,1758422950.7120652,1758422950.7392266
118,-8.791023286748441,100.19908775121439,220.1591570356395,3.633960140632553,1758422950.7157574,1758422950.7431328
119,-5.569805010709388,-20.39654892042745,-18.148739047697745,-0.36952777194892406,1758422950.7194493,1758422950.747039
120,-6.1304880998980025,-4.329686797456816,-89.61224317189772,1.9225926704057201,1758422950.723128,1758422950.7509453
121,-5.289230066537584,82.71291105274577,64.51353210036177,4.583515627102315,1758422950.7268066,1758422950.7548516
122,-1.9379450496855952,0.40916518005542457,-71.16866637929343,6.368473658654693,1758422950.7304854,1758422950.7587578
123,-1.6745777173136958,-17.38408170209732,-145.66963310912251,0.2836993474411429,1758422950.734164,1758422950.762664
124,-3.7347264340814945,29.63292582030408,-29.237965266918764,-1.3332888765035023,1758422950.7378428,1758422950.7665703
125,-7.234960674988088,23.358062829938717,-11.602160885115154,2.709606638369223,1758422950.7415214,1758422950.7704766
126,-1.797469515453031,-12.54746933223214,-55.34266326879151,-4.765659870314266,1758422950.7452002,1758422950.7743828
127,6.658282419993611,-49.857905871002,-92.1691318852827,-2.980539381318522,1758422950.748879,1758422950.778289
128,5.573558643112847,24.04495035740547,10.702209030860104,6.3389261799839005,1758422950.7525575,1758422950.7821953
129,10.649676151935637,97.8816717818845,211.88298406079412,4.635249816648866,1758422950.7562363,1758422950.7861016
130,16.407086826847262,-24.628667021752335,155.0558382991003,9.147421671998018,1758422950.7599149,1758422950.7900078
131,18.3981719759322,-127.05897482077125,-40.14037340565119,16.548493878848603,1758422950.7635937,1758422950.793914
132,34.87189918093918,-24.52093920612242,127.13081696908921,22.20784514911975,1758422950.7673628,1758422950.7978203
133,50.44213367868906,9.238416236359626,317.93293370329775,38.56727686792692,1758422950.771132,1758422950.8017266
134,55.79159447068923,-70.65668196079787,181.29193967476021,53.796642972985865,1758422950.7749012,1758422950.8056328
135,67.98675232565074,-37.95819433371071,174.62971533089876,64.32641979840992,1758422950.7786703,1758422950.809539
136,72.81272368734608,4.707314918283373,298.50863440637477,67.75760407244707,1758422950.7824395,1758422950.8134453
137,54.19905296358229,-54.16523542930372,259.42779648210853,51.716282455368855,1758422950.7862086,1758422950.8173516
138,44.919211087140866,-103.20052199019119,153.6763702512253,38.10819085305411,1758422950.7899776,1758422950.8212578
139,47.80318272416298,-76.83812526753172,150.87610845756717,42.2584628794375,1758422950.7937467,1758422950.825164
140,33.83348108539758,29.068554447265342,389.6976163883228,38.15244984363744,1758422950.7975159,1758422950.8290703
141,27.602228778905555,40.99268271110486,520.4715742834378,21.912399783999717,1758422950.801285,1758422950.8329766
142,32.892706656051814,-90.73500269465148,273.1293004490435,19.23097958770086,1758422950.8050542,1758422950.8368828
143,30.24842245527907,-61.701229103375226,263.25074755214155,23.070452735119034,1758422950.8088233,1758422950.840789
144,38.78174943358317,5.536699310760014,446.5022253249772,26.762685387015154,1758422950.8137686,1758422950.8446953
145,53.655203665412046,-84.8530822704779,332.0538268380333,33.80459553859873,1758422950.818714,1758422950.8486016
146,43.334918415434004,-115.03037994005717,258.1207009390928,23.749277133421856,1758422950.8236592,1758422950.8525078
147,10.768232667627672,-79.3262045168085,339.04003000212833,12.90642100705736,1758422950.8286045,1758422950.856414
148,-1.0893172215055529,-65.58103237382602,414.4523250670172,12.408742593303032,1758422950.8335497,1758422950.8603203
149,6.133466117802527,-137.8371889987029,359.13179134740494,4.2265198802924715,1758422950.8384948,1758422950.8642266
150,0.813232114780476,-201.63896026229486,214.0190465040505,6.964207666256698,1758422950.84344,1758422950.8681328
151,9.701594832860792,-86.66703986085486,349.97112943185493,14.725701239825867,1758422950.8483853,1758422950.872039
152,24.280828135488264,-34.33013017429039,515.3085090925451,8.476355805298226,1758422950.8533306,1758422950.8759453
153,10.94195681162455,-134.78752190305386,372.4569691440556,7.497312991552462,1758422950.858276,1758422950.8798516
154,1.3195425570229418,-172.40428794873878,246.50275245821103,12.49169424212596,1758422950.8632212,1758422950.8837578
155,6.311459510581699,-110.85034702299163,349.5574471342843,13.263125254590705,1758422950.8681664,1758422950.887664
156,13.541528298939738,-54.67150621628389,447.9420890181791,18.448933940766437,1758422950.8719218,1758422950.8915703
157,18.682331371468536,-91.40194100723602,329.8823247968685,19.468651663897617,1758422950.8756773,1758422950.8954766
158,19.51735653302967,-102.57417934737168,242.51462020585313,12.719029808107734,1758422950.8794327,1758422950.8993828
159,24.683067278374438,-42.85718916496262,335.2997930699494,14.641022238167352,1758422950.883188,1758422950.903289
160,17.099142716391725,-72.26426429941785,338.04021679703146,7.051392431058048,1758422950.8869436,1758422950.9071953
161,-4.389484529092442,-140.63847539643757,197.1764115865808,-10.728379926757043,1758422950.890699,1758422950.9111016
162,-18.196083542999986,-120.33131902443711,154.82249934738502,-10.370869170710648,1758422950.8944542,1758422950.9150078
163,-18.053716146285296,-44.6360279165674,289.3636644987855,-9.019931439415814,1758422950.8982098,1758422950.918914
164,-10.404440902349961,-41.64201867848169,329.8053284063935,-12.689511544693232,1758422950.9019651,1758422950.9228203
165,-11.932921969475501,-123.83044500718825,132.73165158042684,-10.268460637707904,1758422950.9057205,1758422950.9267266
166,-20.124162867785344,-104.74148503586184,37.69971803179942,-18.37558448096388,1758422950.909476,1758422950.9306328
167,-33.97646392792012,4.701038695173338,255.35046416148543,-38.10944103308066,1758422950.9132314,1758422950.934539
168,-42.00050309729522,-26.25340708543081,323.8376315040514,-48.4309066407659,1758422950.9182827,1758422950.9384453
169,-35.10435732208316,-110.23927956703119,74.47882701526396,-39.363437068634084,1758422950.9233344,1758422950.9423516
170,-33.97525020758076,-28.120272144908085,90.41763695911504,-27.37086140122119,1758422950.9283857,1758422950.9462578
171,-20.183656467906985,34.8339014519006,268.567594477674,-17.190158779194462,1758422950.933437,1758422950.950164
172,-1.3130774478868261,-41.29227647033986,157.53320667287335,-7.721157509509794,1758422950.9384887,1758422950.9540703
173,-24.735325431660385,-79.64256170752924,21.359128006268293,-24.12132430830752,1758422950.94354,1758422950.9579766
174,-46.3289603779067,-39.641515319934115,67.23158940928988,-39.891253736372164,1758422950.9485915,1758422950.9618828
175,-26.972590945950287,22.11910749517847,192.94091737805866,-20.432154710542818,1758422950.953643,1758422950.965789
176,-8.859694573413435,2.709719054750167,170.73736617411487,-1.673282757819834,1758422950.9586945,1758422950.9696953
177,7.820841024415131,-61.60530410811771,1.9098403013776988,12.562128366411343,1758422950.9637458,1758422950.9736016
178,18.848213130206204,27.788100029923953,99.51475907699205,22.91340213236981,1758422950.9687974,1758422950.9775078
179,9.773521495748355,102.84483674913645,264.8921699307393,4.18199438677766,1758422950.9738488,1758422950.981414
180,14.982596250551069,-5.266375425620936,62.48130222270265,-2.966999398333428,1758422950.9763486,1758422950.9853203
181,25.323828833194057,-15.520540159428492,-58.348857382079586,11.616650747739186,1758422950.9788487,1758422950.9892266
182,25.27920728771278,96.98603240854573,132.1051533978898,6.184199927542068,1758422950.9813485,1758422950.9931328
183,18.578432213382257,83.14670139923692,163.59254207881168,-1.1455198876610666,1758422950.9838483,1758422950.997039
184,9.441606642898478,12.508710606954992,7.32319486211054,6.61286792797182,1758422950.9863484,1758422951.0009453
185,8.721454448857912,18.07613462023437,-56.97914587636478,7.643455968998751,1758422950.9888482,1758422951.0048516
186,5.00705143399864,82.3208633621689,33.75919643091038,9.228180729314772,1758422950.991348,1758422951.0087578
187,14.407371960283854,111.18978261901066,136.96488099801354,29.297822746364545,1758422950.993848,1758422951.012664
188,19.371228725294714,59.2271021194756,37.2563665487105,41.116804431610944,1758422950.996348,1758422951.0165703
189,-0.6077058886057785,77.54749637143686,-57.11424590833485,29.533238344552956,1758422950.9988477,1758422951.0204766
190,3.011797978553659,146.82132229441777,62.24258510116488,25.204658894483146,1758422951.0013478,1758422951.0243828
191,14.949964422297853,97.05207065667491,64.976780707133,24.096735108305438,1758422951.0038476,1758422951.028289
192,9.930616801015276,30.2949504298158,-135.18800489476416,13.131602703550016,1758422951.0075696,1758422951.0321953
193,10.133684401633218,84.37236721359659,-182.2923610912403,10.417544651339995,1758422951.0112913,1758422951.0361016
194,10.995237164861464,178.82179588230792,12.91447338834405,8.452408692031895,1758422951.0150132,1758422951.0400078
195,16.19354718050272,144.47315289243124,35.175675938720815,12.353214311999182,1758422951.0187352,1758422951.043914
196,32.31613954288696,79.79624425887596,-162.93555634643417,28.994934187459876,1758422951.022457,1758422951.0478203
197,38.628375854383194,149.73507144395262,-116.70645614981186,27.36260393289558,1758422951.0261788,1758422951.0517266
198,32.46155817939325,181.51107755478006,-28.390080933459103,16.20631657834747,1758422951.0299008,1758422951.0556328
199,32.10749037311871,144.42289749952033,-124.415266654687,21.569506375861238,1758422951.0336225,1758422951.059539
200,35.716706827213784,121.3081442588009,-199.48305731988512,32.56502467972314,1758422951.0373445,1758422951.0634453
201,34.77146386155982,164.87059267028235,-173.39631135715172,35.344789414142724,1758422951.0410664,1758422951.0673516
202,28.86232375399777,252.4166183860507,-21.015934761497192,30.987543501607433,1758422951.0447881,1758422951.0712578
203,26.34362105580476,160.56370032159612,-114.55897813278716,32.77343692629074,1758422951.04851,1758422951.075164
204,37.0319457973128,102.59061064897105,-316.99185782228597,41.07272866198764,1758422951.0522885,1758422951.0790703
205,38.76120950289442,193.02156502590515,-189.05168488284107,37.02951270130143,1758422951.056067,1758422951.0829766
206,24.57885655278551,154.9979690485634,-157.591593175428,28.504840190733375,1758422951.0598457,1758422951.0868828
207,26.365150706427812,100.14677360258065,-303.29630207503214,29.302180980877893,1758422951.0636241,1758422951.090789
208,33.47857392833248,122.0989495057147,-317.4521170289954,26.30454628206644,1758422951.0674026,1758422951.0946953
209,29.85183194223282,135.0297839534469,-243.82840614928864,22.282974692614516,1758422951.0711813,1758422951.0986016
210,34.5955757020547,117.7971458279062,-205.1677488742862,20.757424669965985,1758422951.0749598,1758422951.1025078
211,37.075224985250316,69.07486286666244,-292.70897411892656,18.657943116486422,1758422951.0787382,1758422951.106414
212,34.61499646869743,59.86416304833256,-356.9040694447467,24.427483432031295,1758422951.0825167,1758422951.1103203
213,31.953449190843457,147.88057723338716,-150.60642492445186,25.12714237052569,1758422951.0862951,1758422951.1142266
214,20.33437239943669,170.26296786218882,12.649805621127598,20.660644023912027,1758422951.0900738,1758422951.1181328
215,15.921175537413546,34.92437889589928,-212.2623203417752,26.94922397868504,1758422951.0938523,1758422951.122039
216,15.29916146526375,41.371377823874354,-255.57687301619444,24.855540154232585,1758422951.0976026,1758422951.1259453
217,13.615208702016389,106.82961780624464,-80.20180530729704,13.072679410659475,1758422951.101353,1758422951.1298516
218,17.743870394210717,12.045121282804757,-210.84956942498684,15.381182978519064,1758422951.1051033,1758422951.1337578
219,20.397267954595918,-10.869560984894633,-272.83564851188567,16.947117176292522,1758422951.1088536,1758422951.137664
220,24.48694200531918,19.076653842115775,-161.09280045167543,7.812071592554275,1758422951.112604,1758422951.1415703
221,22.582588686922463,-14.049858420388773,-171.58783665357623,4.251317504305916,1758422951.116354,1758422951.1454766
222,14.041312341779303,-59.7978742599953,-218.18212624487933,1.0560457737228717,1758422951.1201043,1758422951.1493828
223,14.80526873744202,-92.74479473009706,-230.29267062747385,2.1485928105175844,1758422951.1238546,1758422951.153289
224,17.20324060944199,-52.67830534488894,-146.46261943504214,10.945609885966405,1758422951.127605,1758422951.1571953
225,11.019696958417398,-16.85055980551988,9.046130849048495,1.5667633491611923,1758422951.1313553,1758422951.1611016
226,8.42634128973964,-138.396584876813,-58.316650672932155,-8.801021754734393,1758422951.1351056,1758422951.1650078
227,12.119164620305355,-271.50252503249794,-285.6304915227229,-0.8267071261725505,1758422951.138856,1758422951.168914
228,7.452859758594968,-210.39625893370248,-172.51631752226967,-3.6282916130294325,1758422951.142607,1758422951.1728203
229,5.273237788053393,-182.0388743346557,6.62648994429037,-4.761617901938735,1758422951.146358,1758422951.1767266
230,14.417584197130509,-304.64757918030955,-163.2215513496194,5.629917490550724,1758422951.1501088,1758422951.1806328
231,14.883580998282468,-315.8611887230072,-207.76247978536412,2.258773042492976,1758422951.1538599,1758422951.184539
232,9.61023326857412,-277.2597630044911,-74.50606844795402,3.1081535296107177,1758422951.157611,1758422951.1884453
233,13.152290154410366,-354.6005649508443,-118.00395727844443,12.872987200229545,1758422951.1613617,1758422951.1923516
234,17.747012968836316,-412.2005560416728,-223.1643035238376,12.001573531204485,1758422951.1651127,1758422951.1962578
235,19.03018339494065,-395.0951586437877,-229.6261278751772,12.962272369113634,1758422951.1688638,1758422951.200164
236,24.477886741880866,-319.52087016031146,-30.772442385205068,17.599394382268656,1758422951.1726148,1758422951.2040703
237,30.460585312201147,-304.4273410155438,80.78968936856836,17.30416483191948,1758422951.1763659,1758422951.2079766
238,30.93744852167947,-410.2950046490878,-148.08707970194519,16.960226639246684,1758422951.1801167,1758422951.2118828
239,32.02623621961175,-369.7845046308357,-143.1071932060877,14.207215521470062,1758422951.1838677,1758422951.215789
240,35.56905705436293,-297.1838628924452,56.02426897035912,10.069904425050481,1758422951.188872,1758422951.2196953
241,35.29132369317995,-398.0444976435974,-49.78993389650714,8.271016875485657,1758422951.1938765,1758422951.2236016
242,30.069101266477446,-440.67921577813104,-172.44425031996798,3.2773690376925515,1758422951.198881,1758422951.2275078
243,29.28728355487874,-396.5175467703957,-100.2792923185043,1.7859979848435614,1758422951.2038853,1758422951.231414
244,30.938095653709752,-373.57693694205955,0.5420738306129351,8.953090498805977,1758422951.2088897,1758422951.2353203
245,25.070537980354857,-429.4137371717952,-79.62798916234169,12.534172745945398,1758422951.2138941,1758422951.2392266
246,10.61053138261559,-497.50899411085993,-218.06743683561217,2.8026031098124804,1758422951.2188985,1758422951.2431328
247,-9.120784661598009,-408.8615292983595,-82.47667393437587,-15.828907293762313,1758422951.223903,1758422951.247039
248,-17.069650982433814,-350.41397216916084,84.55604463606142,-26.1434904984053,1758422951.2289073,1758422951.2509453
249,-15.244394097950135,-466.35326367174275,-38.454393837600946,-32.82273809918843,1758422951.2339118,1758422951.2548516
250,-16.355930557198008,-522.0250728116371,-191.58012675505597,-40.13885228254367,1758422951.2389162,1758422951.2587578
251,-20.234006927865266,-463.67140490585007,-101.06326934497338,-31.359170497045852,1758422951.2439206,1758422951.262664
252,-26.600474594823027,-467.2560991430655,-40.592960605514236,-21.98852264181187,1758422951.248813,1758422951.2665703
253,-18.919869565619592,-536.1082297069952,-179.54442287795246,-18.31393052075873,1758422951.2537053,1758422951.2704766
254,-8.008929034760513,-551.1648043438327,-219.55251145653892,-5.92647588904947,1758422951.2585976,1758422951.2743828
255,-7.38804252925911,-465.9307129951194,-56.31995286711026,1.5009921843884513,1758422951.26349,1758422951.278289
256,1.72730347297329,-426.5994841393549,39.70192045427393,2.377585317895864,1758422951.2683823,1758422951.2821953
257,21.371538568848337,-513.5712911186274,-110.09889583685435,14.629878066203673,1758422951.2732747,1758422951.2861016
258,36.40979039762169,-493.61760254739784,-152.95673814462498,30.743490955341258,1758422951.278167,1758422951.2900078
259,34.88208194980689,-392.0464531041216,60.16460540087428,35.949516982524074,1758422951.2830594,1758422951.293914
260,41.622279770934256,-429.2563736170996,111.43489303940441,42.565137769212015,1758422951.2879517,1758422951.2978203
261,54.82066226993629,-504.82921312586404,-41.50221042416524,52.38163214895758,1758422951.292844,1758422951.3017266
262,49.43107394834806,-487.07016119686887,-88.87768764223438,52.640336472104536,1758422951.2977364,1758422951.3056328
263,53.5909959337514,-393.3353975825012,113.59569244936574,51.17394690014771,1758422951.3026288,1758422951.309539
264,70.59889798633958,-394.044720742153,201.22829317755532,59.13323700768524,1758422951.3075597,1758422951.3134453
265,80.13186075056001,-471.41764086298645,12.69434313988313,66.78568502496637,1758422951.3124905,1758422951.3173516
266,78.95303244321258,-408.7173874124419,83.30756053363439,59.20029894217441,1758422951.3174214,1758422951.3212578
267,71.79193022780964,-377.4403773928061,210.63797018514015,54.52043759559456,1758422951.3223522,1758422951.325164
268,63.52319189491391,-435.6725284939166,94.90518926340155,55.93330955514102,1758422951.3272831,1758422951.3290703
269,52.31744085212995,-429.8905844890978,67.33919083466753,43.723972619656706,1758422951.3322139,1758422951.3329766
270,51.328504660086764,-379.45697359810583,126.85689714038745,38.846772068558494,1758422951.3371449,1758422951.3368828
271,53.943396061469684,-283.0031607521232,296.8650720685255,41.58614509465406,1758422951.3420758,1758422951.340789
272,54.63765410869382,-337.596648237668,278.66261808550917,37.7247713458637,1758422951.3470066,1758422951.3446953
273,60.44261908165208,-452.4236900291871,19.41257062368095,39.61017669302237,1758422951.3519375,1758422951.3486016
274,47.00194847601961,-327.20992271834984,156.99721430405043,37.28834834933514,1758422951.3568683,1758422951.3525078
275,29.14916022314719,-252.52255285764113,328.72611478343606,32.174105611178675,1758422951.3617992,1758422951.356414
276,35.54652606111631,-357.42845706967637,150.99023119709454,30.325005321137724,1758422951.3631914,1758422951.3603203
277,36.979670699824055,-383.62469667289406,88.46121263457462,23.680392202542862,1758422951.3645835,1758422951.3642266
278,28.79984489621711,-279.72522156802006,245.27141386829317,22.34814149234444,1758422951.3659756,1758422951.3681328
279,26.65617802865745,-220.78793359175324,353.4077584622428,17.13724550776533,1758422951.3673677,1758422951.372039
280,19.528682102856692,-302.5058761872351,242.19134180434048,-0.21489368760376237,1758422951.3687599,1758422951.3759453
281,8.65075103242998,-316.61024358682334,158.1143634233158,-7.822184163756901,1758422951.370152,1758422951.3798516
282,0.6309890767734032,-236.9647556261625,271.26932886010036,-4.238928960287012,1758422951.3715441,1758422951.3837578
283,1.6499700451240642,-228.1804052994121,339.1688088616356,-5.222029919852503,1758422951.3729362,1758422951.387664
284,8.496975932561327,-217.80498016881756,328.1758218097966,-5.1078230226412416,1758422951.3743284,1758422951.3915703
285,6.323812615082716,-171.5301973563619,341.14733596425503,-4.1674609570764005,1758422951.3757205,1758422951.3954766
286,-1.852981566276867,-162.81422933656722,387.6462573260069,-14.794341208908008,1758422951.3771126,1758422951.3993828
287,-18.52748484563199,-197.49116906174459,392.756303650327,-29.31898193489178,1758422951.3785048,1758422951.403289
288,-40.470010115153855,-244.5097175713163,277.29650181205943,-46.49246814331855,1758422951.3822794,1758422951.4071953
289,-55.89761639223434,-220.85983544040937,233.4501178294886,-63.09109156249906,1758422951.3860538,1758422951.4111016
290,-69.73481855918362,-137.19118516508024,380.0064238908235,-70.9003061952535,1758422951.3898282,1758422951.4150078
291,-73.09743475007417,-162.01132547936868,375.80719583365135,-72.19373892227304,1758422951.3936028,1758422951.418914
292,-66.8841333512537,-220.94010419829283,201.02608682657592,-61.56707418849692,1758422951.3973775,1758422951.4228203
293,-60.89970554089814,-150.98912408016622,241.14204467623495,-50.11816300704959,1758422951.401152,1758422951.4267266
294,-50.17362384973967,-90.3672588719055,354.4705981547013,-43.57886981021147,1758422951.4049263,1758422951.4306328
295,-57.4237287822325,-115.97715375002008,321.93553449073806,-47.88744480133755,1758422951.408701,1758422951.434539
296,-75.55638376291608,-179.36348735552747,204.1941610686481,-71.9216235470667,1758422951.4124756,1758422951.4384453
297,-60.05111179484811,-142.47685054433532,196.26908911159262,-68.52007558333571,1758422951.41625,1758422951.4423516
298,-39.65660205652239,21.887507579289377,459.51014332287014,-34.37771528918529,1758422951.4200244,1758422951.4462578
299,-39.40694146673195,-19.50412344338838,479.8393065519631,-22.671140120219206,1758422951.423799,1758422951.450164
300,-18.67328038245614,-120.32301201520022,256.80893175303936,-16.626582045078976,1758422951.427573,1758422951.4540703
301,7.425858439455624,18.75579223560635,424.1253405902535,1.581836233381182,1758422951.4313471,1758422951.4579766
302,8.584589595266152,52.95265031908639,548.1252035007346,5.2793102862196974,1758422951.435121,1758422951.4618828
303,10.86598093205248,-22.843413464957848,383.99529382935725,-3.1141162514977623,1758422951.4388952,1758422951.465789
304,17.119318755270797,38.596271430142224,398.59544624667615,-2.0923080532229505,1758422951.4426692,1758422951.4696953
305,18.431864097889047,56.51532104657963,432.7150224392535,10.639882502058754,1758422951.446443,1758422951.4736016
306,18.091097384982277,31.343776367371902,384.6299962961348,17.604456162720453,1758422951.4502172,1758422951.4775078
307,12.782916768090217,50.109951110440306,363.43582383100875,15.55648390125134,1758422951.4539912,1758422951.481414
308,13.565684546527336,48.78511339658871,309.5344374435954,19.92331307285349,1758422951.4577653,1758422951.4853203
309,17.878755779660423,140.93952184682712,442.64884697657544,22.59440633439226,1758422951.4615393,1758422951.4892266
310,9.200448959280038,175.60809870471712,516.1552711591357,12.934554691193625,1758422951.4653134,1758422951.4931328
311,8.434602755281958,56.933821659185924,254.9623389187036,12.466087825072464,1758422951.4690874,1758422951.497039
312,24.33416395977838,141.86130128684454,276.17924498335924,18.950957830209518,1758422951.4728181,1758422951.5009453
313,23.73934844561154,233.65330734371673,463.04704458860215,8.159665878803935,1758422951.476549,1758422951.5048516
314,13.606767490855418,112.22917791095097,311.2374000599375,0.10015437420224771,1758422951.4802797,1758422951.5087578
315,14.598388811195036,94.93935055658221,191.15230149624404,1.2011769103410188,1758422951.4840105,1758422951.512664
316,15.231066134234425,147.69265812810045,235.47467212181073,-4.074841069377726,1758422951.4877412,1758422951.5165703
317,13.71482808762812,146.09933898213785,248.04935611062683,-1.7107272965076845,1758422951.491472,1758422951.5204766
318,10.475839493330568,119.73214609792922,183.12327762704808,-3.8269704947597347,1758422951.4952028,1758422951.5243828
319,2.26601816364564,83.46742081607226,113.36927494802512,-23.30876836972311,1758422951.4989336,1758422951.528289
320,-11.02486888304702,149.90659752569627,212.6882058577612,-36.64432890640455,1758422951.5026643,1758422951.5321953
321,-17.309744177997345,217.37990175269078,355.02434235962573,-39.72171841596719,1758422951.506395,1758422951.5361016
322,-13.364640648185741,126.40983747597784,262.4177498044446,-37.623353150789626,1758422951.5101259,1758422951.5400078
323,-17.33729528222466,78.65568519791123,123.73650575138163,-32.636971393279964,1758422951.5138566,1758422951.543914
324,-17.978256092901574,138.95046708814334,186.56514228065498,-30.338668179349042,1758422951.5177221,1758422951.5478203
325,-12.605479593825294,123.04932832316263,203.22449055709876,-25.29361821335624,1758422951.5215876,1758422951.5517266
326,-21.24524338619085,94.91876737226266,131.88757289550267,-23.680674022558378,1758422951.525453,1758422951.5556328
327,-33.825761719053844,111.51932739350013,140.81074784789234,-29.27367153330124,1758422951.5293183,1758422951.559539
328,-36.391741558822105,130.29576110618655,198.42430034955032,-31.342975761246635,1758422951.5331838,1758422951.5634453
329,-29.364353797835065,126.66529242671095,229.2553090552101,-31.313540363276843,1758422951.5370493,1758422951.5673516
330,-27.50597792552435,68.07779767812463,115.21645574236754,-25.210637521726312,1758422951.5409148,1758422951.5712578
331,-38.296882323600585,70.88115348329302,64.26516711630393,-19.066806109563913,1758422951.5447803,1758422951.575164
332,-36.66130031840294,149.08031316724373,251.85941852617543,-25.018360276560998,1758422951.5486455,1758422951.5790703
333,-24.81114097472164,147.43527467467356,313.7396210047882,-29.535130218340782,1758422951.552511,1758422951.5829766
334,-28.503513810166623,89.13076208042912,166.8124013086781,-29.703820678027114,1758422951.5563765,1758422951.5868828
335,-30.790926542744273,128.27085059613455,194.1016048900783,-28.61591567765572,1758422951.560242,1758422951.590789
336,-20.895381927955896,162.7984769078903,290.4686536308145,-23.308385854994413,1758422951.5674927,1758422951.5946953
337,-20.6287102412316,87.65958245610818,180.27479277539533,-19.126340322050964,1758422951.5747437,1758422951.5986016
338,-26.743005204276415,71.88145437743515,112.93303457833827,-20.338849470223067,1758422951.5819945,1758422951.6025078
339,-25.17738281295169,115.07093962666113,173.19888718402945,-27.21315657388186,1758422951.5892453,1758422951.606414
340,-23.079108243400697,138.01509798137704,212.52288877475075,-33.88568998686969,1758422951.596496,1758422951.6103203
341,-28.27315629372606,109.01688492292305,170.86791615048423,-38.97528601187514,1758422951.603747,1758422951.6142266
342,-30.358406236569863,33.240986423625145,35.20959039288573,-35.277572580293054,1758422951.610998,1758422951.6181328
343,-19.37815899346606,93.95240773964906,60.92526586714666,-23.25929193358752,1758422951.6182487,1758422951.622039
344,-8.405513783684,217.3980791363283,313.1346578761004,-27.67016308719758,1758422951.6254995,1758422951.6259453
345,-9.831338658987079,154.52382188566844,313.276346662431,-35.202175303624244,1758422951.6327505,1758422951.6298516
346,-20.018269655876793,71.47776372596854,86.06146536738379,-29.406558858638164,1758422951.6400013,1758422951.6337578
347,-25.799455613072496,152.47679906865233,169.0893091072794,-30.022279389871983,1758422951.647252,1758422951.637664
348,-25.42427762155421,175.61396964843152,263.5339535724488,-31.566423396317987,1758422951.6476128,1758422951.6415703
349,-31.87369381924509,102.88973091801745,101.92499388655415,-30.634453268372454,1758422951.6479738,1758422951.6454766
350,-34.279442654777085,118.36256351970951,84.74678503989708,-35.263833686942235,1758422951.6483345,1758422951.6493828
351,-30.12099257207592,164.482144847163,176.54478294792352,-34.49663760222029,1758422951.6486955,1758422951.653289
352,-33.20164893331821,152.37652311613783,180.84306672553066,-26.24175584979821,1758422951.6490562,1758422951.6571953
353,-32.33304232178489,93.44634085681173,63.57688844751101,-23.574694356735563,1758422951.649417,1758422951.6611016
354,-32.025923357956344,89.3587069013156,-18.146005179092754,-33.57100238191197,1758422951.649778,1758422951.6650078
355,-40.32408949825913,188.7209781128331,163.62239090475487,-43.81189011898823,1758422951.6501386,1758422951.668914
356,-40.126709492033115,202.88098930260458,275.90851373551413,-43.06289854989154,1758422951.6504996,1758422951.6728203
357,-32.1354047152563,132.53367636421171,123.22211227420485,-33.88163141554105,1758422951.6508603,1758422951.6767266
358,-23.12348551818286,167.56933574465802,87.9912002113997,-21.406702471518656,1758422951.6512213,1758422951.6806328
359,-16.917777278402355,203.21718040283304,195.96352272108197,-16.639778120006667,1758422951.651582,1758422951.684539
360,-32.526385847479105,132.62742462963797,128.45519430894637,-33.89433064527111,1758422951.656357,1758422951.6884453
361,-47.88277448160807,106.88798734504962,11.340017135051312,-51.57622802493279,1758422951.661132,1758422951.6923516
362,-33.86704134743195,161.36107827055093,80.86901616322575,-35.413214850006625,1758422951.6659074,1758422951.6962578
363,-27.972299245069735,183.33073044990306,134.04344271236914,-22.71019367905683,1758422951.6706824,1758422951.700164
364,-34.01334555709036,144.48971886634536,63.5327480204578,-34.25727334432304,1758422951.6754575,1758422951.7040703
365,-31.854456737200962,67.44158002763288,-74.19686531237676,-30.106192542647477,1758422951.6802325,1758422951.7079766
366,-33.64764650876168,73.81294765177154,-139.57244663723395,-20.943055721436394,1758422951.6850076,1758422951.7118828
367,-27.666392965329578,226.4409608071437,145.50564776128158,-24.418986200238578,1758422951.6897826,1758422951.715789
368,-15.8246292162803,217.02793772044606,247.35893898674112,-24.330561890237732,1758422951.6945577,1758422951.7196953
369,-4.35612363126711,75.15686695472687,-53.677497601369396,-13.967082609131467,1758422951.699333,1758422951.7236016
370,-0.01123376001487486,171.58866202900026,66.09484465308196,-5.122835582878906,1758422951.704108,1758422951.7275078
371,-16.45171066079638,218.11805012998957,220.47856889913237,-11.06633303797571,1758422951.708883,1758422951.731414
372,-22.167981693899492,92.72530365020793,-25.35041092472966,-13.663894032448297,1758422951.7138853,1758422951.7353203
373,-18.863138889690163,123.90293438445224,-16.091511634222115,-14.693363496073289,1758422951.7188878,1758422951.7392266
374,-25.652515558729647,168.31353044359275,105.80649704228199,-20.83515001667547,1758422951.72389,1758422951.7431328
375,-23.9267378145596,122.80672764549672,49.294071642361814,-14.218891101016197,1758422951.7288923,1758422951.747039
376,-28.015718308917712,87.48290189696854,-40.54943586517038,-14.561670920142205,1758422951.7338948,1758422951.7509453
377,-37.70195723840152,77.60227603348903,-106.15102961007506,-20.49084353336366,1758422951.738897,1758422951.7548516
378,-31.136824050132418,149.91640731191,-6.30897391376493,-18.759027078805957,1758422951.7438993,1758422951.7587578
379,-30.014278848015238,182.8531720396495,97.48701751048793,-26.755707544856705,1758422951.7489018,1758422951.762664
380,-28.07754945755005,86.75902779129683,-46.41939641123463,-18.75069208399509,1758422951.753904,1758422951.7665703
381,-10.134945634752512,57.871000949468,-185.92150582064642,5.329507255490171,1758422951.7589064,1758422951.7704766
382,-12.8865281433973,160.1529574671731,-9.47604206186952,-0.863531238923315,1758422951.7639089,1758422951.7743828
383,-28.684804288699524,159.0025268554018,86.88853450323222,-15.428701106109656,1758422951.7689111,1758422951.778289
384,-26.034614476229763,82.532002544438,-103.74548307864461,-14.093321956228465,1758422951.771409,1758422951.7821953
385,-22.605383443267783,158.35685099432885,-20.5462537779822,-15.00014163024025,1758422951.7739067,1758422951.7861016
386,-19.801917558419518,181.2052377914224,139.03236330789514,-9.72219806240173,1758422951.7764046,1758422951.7900078
387,-14.098586943320697,77.91567195604148,7.048070107237436,-6.937905131140724,1758422951.7789025,1758422951.793914
388,-23.24095428470173,57.18077164486749,-53.10773140145466,-18.539274577458855,1758422951.7814002,1758422951.7978203
389,-34.68251655274071,52.040340104766074,-25.09889497119002,-22.73664822295541,1758422951.783898,1758422951.8017266
390,-32.02896952847368,74.99062628872343,34.35251508228248,-22.27903038135264,1758422951.786396,1758422951.8056328
391,-26.63373273279285,109.70494032898569,120.39437303232262,-24.39403167855926,1758422951.7888937,1758422951.809539
392,-21.85242766243755,41.11758592282422,50.040560060646385,-21.249898253387073,1758422951.7913916,1758422951.8134453
393,-15.112749931926373,55.40950072472333,73.92143025598489,-16.54242166111362,1758422951.7938895,1758422951.8173516
394,-13.18694753642194,134.1022222082247,237.93784769874765,-17.433114625222515,1758422951.7963872,1758422951.8212578
395,-15.016835262358654,64.58497246197658,145.31330530939158,-22.12556064952514,1758422951.798885,1758422951.825164
396,-13.184554236504482,0.029080096021061763,-16.902106824913062,-23.30760425279732,1758422951.8027613,1758422951.8290703
397,-3.6457126883324236,99.13334791909438,129.8522807189729,-20.601757757656742,1758422951.8066375,1758422951.8329766
398,11.229282411164604,192.81335475778906,356.23455018230015,-16.092129890603246,1758422951.8105137,1758422951.8368828
399,24.16787106380798,103.63508114701835,254.7686526265461,-10.2306688480312,1758422951.81439,1758422951.840789
400,30.651096278015757,25.66200517915422,51.89743536518654,-2.576794355525635,1758422951.8182662,1758422951.8446953
401,27.92162772998563,98.49998749818769,160.71021003404167,6.299332238937495,1758422951.8221424,1758422951.8486016
402,18.462432461674325,115.48722366068978,278.1462509512203,8.488207620684989,1758422951.8260186,1758422951.8525078
403,12.577740399137838,76.52693949540844,184.85161936515942,11.170944986020913,1758422951.8298948,1758422951.856414
404,17.119802997010993,78.22218638472259,137.00265991245396,23.051683396450244,1758422951.833771,1758422951.8603203
405,23.390161833754973,131.06265377029194,284.5407781492686,26.42528017575387,1758422951.8376472,1758422951.8642266
406,20.803039200895,154.0659960276098,376.36421972396784,24.99295453558443,1758422951.8415234,1758422951.8681328
407,17.636475290404633,74.78355120832566,188.060651725973,28.665720578137552,1758422951.8453996,1758422951.872039
408,22.459144983935403,115.69847443216713,192.42385283170734,25.156227638130076,1758422951.8489907,1758422951.8759453
409,26.319489575806074,186.02561216670438,348.42009089689236,24.97978527651867,1758422951.8525817,1758422951.8798516
410,26.708299062534934,97.58891082493938,206.74395518063102,27.215123246249277,1758422951.8561728,1758422951.8837578
411,30.005988428543787,67.66846916245413,97.8356950331945,17.21868302213261,1758422951.8597639,1758422951.887664
412,24.87070323023363,114.64588495963835,160.53051481605507,5.396229653764749,1758422951.863355,1758422951.8915703
413,9.968548010307131,118.04568268687581,200.1138472687453,-3.987364726373926,1758422951.8669457,1758422951.8954766
414,4.359008929925039,69.60535089802579,124.99506692937575,-6.403205722221173,1758422951.8705368,1758422951.8993828
415,6.891303384385537,22.121450926555553,-10.483288964140229,1.2974578792636748,1758422951.8741279,1758422951.903289
416,9.878127394214971,68.60622435758705,29.69012103427667,8.91898193769157,1758422951.877719,1758422951.9071953
417,12.40151370834792,174.0719912435743,262.84464234812185,10.659193342959043,1758422951.88131,1758422951.9111016
418,4.870924413640751,142.5206790017255,303.3678764201468,-5.371156621462433,1758422951.884901,1758422951.9150078
419,-6.804711877630325,29.286795396357775,53.45007598341908,-25.85707184515195,1758422951.888492,1758422951.918914
420,-7.299020714388462,87.94742504204623,97.63616254914086,-17.955086344882147,1758422951.893496,1758422951.9228203
421,-12.157310618029442,120.6746953909751,248.93918651738204,-4.77885768856504,1758422951.8985,1758422951.9267266
422,-18.490882755169878,33.32127626196598,76.30900971312076,-2.0936177139228676,1758422951.903504,1758422951.9306328
423,-4.712815362669062,52.87131697262521,51.97126553626731,10.639572008454707,1758422951.9085078,1758422951.934539
424,-3.5775264140684158,73.95690314352396,154.78202077629976,10.912945885647787,1758422951.9135118,1758422951.9384453
425,-20.72240775692626,19.022889303654665,106.44510318897665,-1.219283685204573,1758422951.9185157,1758422951.9423516
426,-20.377692857407965,-18.789820280100685,9.252697595395148,-4.074175105779432,1758422951.9235198,1758422951.9462578
427,-21.50061548978556,-18.074183949676808,-49.654897019965574,-11.499896212422755,1758422951.9285238,1758422951.950164
428,-29.49231196907931,75.75279600830982,157.0402518035844,-15.261837174475659,1758422951.9335277,1758422951.9540703
429,-20.666245046071708,108.72103957633954,345.585310237715,-12.749975366750732,1758422951.9385316,1758422951.9579766
430,-16.353716859593987,-16.467802651051898,92.63250446808524,-13.080029812059365,1758422951.9435356,1758422951.9618828
431,-26.112686916196253,7.898929856484756,5.7941926119383425,-16.30496199350455,1758422951.9485395,1758422951.965789
432,-25.95253628192586,81.45513843285153,205.40314685483463,-24.899847229506122,1758422951.952323,1758422951.9696953
433,-24.48234818028868,-9.2629283851129,100.22337113320827,-24.86088324166485,1758422951.9561062,1758422951.9736016
434,-32.389983148430474,-25.28726857865695,-33.35410067019984,-23.967684844508767,1758422951.9598897,1758422951.9775078
435,-33.471210630727,20.408890929771587,44.614725086372346,-29.615050204418367,1758422951.963673,1758422951.981414
436,-29.631437076313887,24.09329891431844,106.23704965598881,-27.250782271526987,1758422951.9674563,1758422951.9853203
437,-23.968532414350193,-13.346066830912605,30.08815477625467,-23.140391759108752,1758422951.9712398,1758422951.9892266
438,-17.381105916196248,-41.93708766734926,-63.07850211812183,-23.077277134289034,1758422951.9750233,1758422951.9931328
439,-15.393190736154793,45.658554626163095,73.76974878646433,-18.68351923956652,1758422951.9788065,1758422951.997039
440,-5.53141840652097,72.09935495775426,149.18401884636842,-6.610592789191287,1758422951.98259,1758422952.0009453
441,-2.5292455397429876,-7.270851346838754,-13.002813730854541,-4.296584240277298,1758422951.9863734,1758422952.0048516
442,-14.121765503921779,-27.529821114207152,-108.87396815395914,-8.425354936189251,1758422951.9901567,1758422952.0087578
443,-7.685257181932684,47.69191148225218,-26.625669439556077,-1.628667026758194,1758422951.99394,1758422952.012664
444,0.6068761713686399,145.53317813470494,179.52300109458156,-4.940317541564582,1758422951.9988616,1758422952.0165703
445,-6.72523804512457,75.30103015789064,122.97892210492864,-11.335609138855943,1758422952.003783,1758422952.0204766
446,-9.3128846877662,11.017715591413435,-111.77687587146647,-7.963358918350423,1758422952.0087044,1758422952.0243828
447,-14.404851982108084,105.92610707838321,5.688690721290186,-13.36510792383342,1758422952.0136259,1758422952.028289
448,-17.319935695180902,78.31802481523482,44.05298870801926,-13.639379397645826,1758422952.0185473,1758422952.0321953
449,-17.10357642514282,9.759896013478283,-171.37393536861055,-10.122626547934487,1758422952.023469,1758422952.0361016
450,-26.310305216960842,65.25773855310399,-159.44178499281406,-18.7688258170092,1758422952.0283904,1758422952.0400078
451,-16.279199376469478,123.6426075999625,-17.611078588059172,-20.447980960656423,1758422952.0333118,1758422952.043914
452,5.205992871604394,108.70716754172463,-5.345536493230611,-10.135242498567095,1758422952.0382333,1758422952.0478203
453,3.9640741354960483,17.566646100371145,-195.70991858304478,-1.8308222807536367,1758422952.0431547,1758422952.0517266
454,-3.805468043865403,-10.398421357618645,-351.5376193097327,-1.8354098779673222,1758422952.0480762,1758422952.0556328
455,-3.774979522509966,84.95097330806311,-151.80966163775884,-5.149324439233169,1758422952.0529976,1758422952.059539
456,1.6554909866536036,104.12523711012909,13.71941304858774,0.6010646077338606,1758422952.0555758,1758422952.0634453
457,8.93549439549679,18.43720778968418,-186.6512200620491,6.09614179545315,1758422952.058154,1758422952.0673516
458,14.549252430937486,53.836581747222226,-224.3209148766473,4.178805075382115,1758422952.0607324,1758422952.0712578
459,18.534091736830305,108.81498441577423,-66.38587165507488,11.248319522681413,1758422952.0633106,1758422952.075164
460,18.53280523372814,20.265591562492773,-191.81277570640668,18.101895681524184,1758422952.065889,1758422952.0790703
461,16.132998804037925,-24.544331307173707,-353.3732068135869,15.525629131530877,1758422952.0684671,1758422952.0829766
462,10.160570522391936,21.28712983772857,-281.8518594596535,16.777479788841447,1758422952.0710452,1758422952.0868828
463,9.079443367751082,65.53613549901638,-140.55808528442867,19.119997289060848,1758422952.0736234,1758422952.090789
464,13.81686950236326,33.428597321675625,-194.75186155876145,20.768657667242223,1758422952.0762017,1758422952.0946953
465,11.325947422737954,-41.69127990846755,-377.83337750285864,20.90769880951848,1758422952.07878,1758422952.0986016
466,13.766244672471657,8.496028837340418,-289.5158705599606,19.301582656276878,1758422952.0813582,1758422952.1025078
467,18.58754147106083,61.67319332162151,-172.26449135271832,27.411037961399416,1758422952.0839365,1758422952.106414
468,18.164620715077035,-27.41200459940592,-358.2228513946757,35.36895284795901,1758422952.08893,1758422952.1103203
469,23.647864346887218,-79.8358147997642,-505.3045719061047,34.464379898417974,1758422952.0939236,1758422952.1142266
470,17.516298606118653,33.65721258189296,-321.88343833899125,35.08497390357661,1758422952.098917,1758422952.1181328
471,7.17575757324812,107.86267098144162,-108.52595083601773,32.06813547378988,1758422952.1039107,1758422952.122039
472,17.100540816318244,-17.87963646807475,-313.85570435225964,25.020898458897136,1758422952.1089041,1758422952.1259453
473,15.710667792969616,-65.85759982140735,-520.8714099125937,18.73811288436991,1758422952.1138978,1758422952.1298516
474,-0.6431787022738717,21.790378824051004,-359.94194470439106,11.755210762668867,1758422952.1188912,1758422952.1337578
475,-2.056230247108033,14.35320538416272,-301.9428918068297,11.331030818168074,1758422952.1238847,1758422952.137664
476,1.7034932063543238,-52.929571268497966,-459.7924093888141,12.127018918661634,1758422952.1288784,1758422952.1415703
477,6.300704383698758,-85.42501542449463,-576.8180294558406,17.27194929862162,1758422952.1338718,1758422952.1454766
478,10.492127912701108,-6.850039954180829,-408.1788457692601,26.11753257876262,1758422952.1388655,1758422952.1493828
479,9.235719105112366,21.413631625589915,-228.45184421213344,16.79980650989455,1758422952.143859,1758422952.153289
480,15.537129377917154,-87.8037873180001,-437.6565507026389,9.558174118224997,1758422952.1463306,1758422952.1571953
481,12.05041524473927,-55.10988073248882,-453.49353924766183,9.680246702657314,1758422952.1488025,1758422952.1611016
482,-3.420505580637837,-18.28080967796268,-288.26965428097174,-0.9595359386003111,1758422952.1512742,1758422952.1650078
483,1.6677748722722754,-108.53711882192874,-439.9925151495263,-0.5407761964597739,1758422952.153746,1758422952.168914
484,1.801475955056958,-122.47600970615167,-525.9249219526537,-2.82075145089766,1758422952.1562178,1758422952.1728203
485,-18.039454020530684,-99.66174056881573,-432.1784476642497,-18.273086772242095,1758422952.1586895,1758422952.1767266
486,-20.15654957611696,-75.30070278578205,-338.74032589094713,-16.852452596620424,1758422952.1611612,1758422952.1806328
487,-15.18090828435379,-87.32174855022458,-328.8339392072521,-13.388217397936387,1758422952.163633,1758422952.184539
488,-21.672636875795433,-160.9363359195413,-455.7938360949047,-15.548718201520387,1758422952.1661048,1758422952.1884453
489,-20.91953349072719,-130.335602390056,-440.3687771256082,-10.403818305843743,1758422952.1685765,1758422952.1923516
490,-16.55218597096973,-59.287356140615884,-320.0148408799432,-13.198484200576786,1758422952.1710484,1758422952.1962578
491,-15.71820365867461,-123.72376283345511,-428.59530148329213,-13.589220597903477,1758422952.17352,1758422952.200164
492,-6.494266118766973,-178.71615504531655,-579.8296579001471,0.698523888568161,1758422952.177295,1758422952.2040703
493,-0.01566456409636885,-50.06273405754473,-391.5800334610976,1.2028930233500432,1758422952.1810699,1758422952.2079766
494,-10.36317085439805,29.458725592470728,-167.38471328746527,-9.98817210883135,1758422952.1848447,1758422952.2118828
495,-20.794583876500838,-80.1159661047277,-347.0084731443785,-12.522044341894798,1758422952.1886196,1758422952.215789
496,-24.721077697351575,-80.0032036312623,-466.61150054913014,-24.058836468262598,1758422952.1923945,1758422952.2196953
497,-31.434037797735073,-24.909184597898275,-341.1797641403973,-38.88055009045638,1758422952.1961694,1758422952.2236016
498,-35.98880260394071,-62.34459957439685,-359.3323366646655,-32.93482582748402,1758422952.1999445,1758422952.2275078
499,-34.73001125603332,-42.05761390918633,-399.2367748799734,-22.021476454625372,1758422952.2037194,1758422952.231414
500,-34.80526065221056,-35.39298349781893,-424.1991480230354,-17.913577720581088,1758422952.2074943,1758422952.2353203
501,-38.62938124782522,44.623059328994714,-269.9156825430691,-21.966759543836815,1758422952.2112691,1758422952.2392266
502,-36.27293047311832,119.62704530614428,-42.473255584947765,-32.03655967107625,1758422952.215044,1758422952.2431328
503,-30.310732456331607,-8.208828523638658,-256.987011551857,-33.02524278880446,1758422952.218819,1758422952.247039
504,-34.49316312748124,12.879717296978924,-317.89352733734995,-33.868746494234074,1758422952.2225764,1758422952.2509453
505,-30.99335073385737,90.7083451608778,-122.209507743828,-30.68270792660769,1758422952.226334,1758422952.2548516
506,-22.84533979961998,8.244730629376136,-244.5063820076175,-18.534669264801778,1758422952.2300916,1758422952.2587578
507,-39.906571918108966,8.647833382419776,-337.04643377522007,-35.3286933915806,1758422952.233849,1758422952.262664
508,-53.26241114208824,40.87624584528385,-271.1243982245214,-63.0168397584348,1758422952.2376068,1758422952.2665703
509,-49.197213472856674,29.278707381163258,-265.3517998275347,-63.68463767468347,1758422952.2413642,1758422952.2704766
510,-54.672160266985884,22.74172467959579,-320.06381570221856,-61.18637808531639,1758422952.2451217,1758422952.2743828
511,-56.33699990509194,27.005341632524505,-335.9866060731001,-61.46394100881298,1758422952.2488794,1758422952.278289
512,-60.57879399051308,85.80375288566574,-241.50786015437916,-67.86297948544961,1758422952.252637,1758422952.2821953
513,-78.4080111894873,128.47010758990655,-120.5827929857187,-79.84561807298451,1758422952.2563944,1758422952.2861016
514,-79.53404381289147,55.58905963378493,-158.53917232202366,-70.52148738747928,1758422952.260152,1758422952.2900078
515,-75.21290625739493,-26.707598742446862,-353.11310803098604,-64.80827360402327,1758422952.2639096,1758422952.293914
516,-73.23523659416242,26.711761557729915,-290.16828862344846,-68.66430838010274,1758422952.2676551,1758422952.2978203
517,-53.480970743403304,64.76621457264991,-130.1274639805779,-55.845118643541355,1758422952.271401,1758422952.3017266
518,-45.76909706622246,-29.987405814637896,-295.0880449642427,-52.551902795996284,1758422952.2751465,1758422952.3056328
519,-58.45779784198385,-64.46758379723178,-413.86256797937676,-54.70675446011592,1758422952.278892,1758422952.309539
520,-61.6791113553918,20.760195345559623,-261.09044616436586,-48.35969989007572,1758422952.2826376,1758422952.3134453
521,-58.82289582770318,29.59479699609801,-190.29927676729858,-48.84203480379074,1758422952.2863832,1758422952.3173516
522,-54.72521085169865,-44.404487835476175,-374.04954022401944,-47.64947636393481,1758422952.290129,1758422952.3212578
523,-55.45816425740486,-18.317442077153828,-441.9420219925232,-49.94158406171482,1758422952.2938745,1758422952.325164
524,-62.0243242153083,83.08842833142262,-210.8608286678791,-55.22372423336492,1758422952.29762,1758422952.3290703
525,-56.961643997055944,101.55623314162949,-127.26182391215116,-53.93778992597072,1758422952.3013659,1758422952.3329766
526,-51.16376770124771,32.27071066899225,-310.00335363391787,-53.85246660900884,1758422952.3051114,1758422952.3368828
527,-53.192389073228696,39.24382216576487,-348.92841023858637,-51.32077465094335,1758422952.308857,1758422952.340789
528,-52.26366209218395,114.86607238731813,-209.71268101315945,-41.27789181760454,1758422952.3137047,1758422952.3446953
529,-48.43541545732296,88.7302791934926,-201.58647458907217,-33.95900857662491,1758422952.3185525,1758422952.3486016
530,-42.833603956562,48.87424845149508,-319.81856813281775,-36.24112139067438,1758422952.3234003,1758422952.3525078
531,-32.92355754110031,128.0919342035195,-281.98616607673466,-23.815401742598624,1758422952.328248,1758422952.356414
532,-17.572755741886795,183.5765827797586,-115.25729387858883,-2.461892612729571,1758422952.3330958,1758422952.3603203
533,-10.776541957078734,98.8522260011523,-205.00391974160448,0.41116479971969966,1758422952.3379436,1758422952.3642266
534,-19.06636886007618,59.83504412055481,-387.9257532414049,4.3561085909750545,1758422952.3427916,1758422952.3681328
535,-18.952128371980507,169.05201615259284,-231.17442273022607,4.090174978991854,1758422952.3476393,1758422952.372039
536,-3.81237060733838,202.535393935279,-32.74888018006459,-5.1546668158553075,1758422952.352487,1758422952.3759453
537,8.196522513811942,88.7149485105765,-160.96057537617162,3.488850792622543,1758422952.3573349,1758422952.3798516
538,8.411091580084758,36.52163760055555,-320.7244357354939,10.921503776917234,1758422952.3621826,1758422952.3837578
539,-5.011136439192342,74.17433026316576,-215.3494364679791,4.858466850637342,1758422952.3670304,1758422952.387664
540,-23.696034815657185,32.15306495886762,-169.78214564733207,-5.898570802921313,1758422952.3710628,1758422952.3915703
541,-22.774311434361152,-67.9032152388827,-383.9313305024989,-15.849403772081132,1758422952.3750954,1758422952.3954766
542,-8.482698787469417,-83.18497215129901,-480.8102819141932,-1.1273141984565882,1758422952.3791277,1758422952.3993828
543,-10.154484869359294,-8.609127327450551,-283.8000990264118,13.596729272045195,1758422952.38316,1758422952.403289
544,-11.917247000004863,-6.331126834033057,-176.45665694307536,3.666447167255683,1758422952.3871925,1758422952.4071953
545,-12.725118591013597,-144.7143214152893,-422.9824270447716,-3.234529898763867,1758422952.3912249,1758422952.4111016
546,-25.26890623586951,-199.68087872152682,-562.1079304637387,-5.944690869626356,1758422952.3952575,1758422952.4150078
547,-24.63873687479645,-104.34194190066773,-289.8719517402351,-12.013225279544713,1758422952.3992898,1758422952.418914
548,-24.78846194554353,-116.35989584395429,-155.34129324182868,-18.7214779855276,1758422952.4033222,1758422952.4228203
549,-30.999245571962092,-220.69166378327645,-357.1179822674021,-22.131202677075635,1758422952.4073548,1758422952.4267266
550,-25.895544964674627,-185.5030154287815,-358.89404194941744,-21.316168999517686,1758422952.4113872,1758422952.4306328
551,-25.79842214882956,-150.11356775910826,-197.7298002759926,-26.927143562148558,1758422952.4154196,1758422952.434539
552,-27.981979342730483,-226.65345801436342,-247.03455101884902,-31.32086670261924,1758422952.419007,1758422952.4384453
553,-31.455347630602773,-232.98038258374436,-305.68312773061916,-31.244372876375564,1758422952.4225945,1758422952.4423516
554,-35.80397671184619,-172.20268133532954,-210.53740822337568,-34.78326425072737,1758422952.4261818,1758422952.4462578
555,-38.65396921549109,-154.6659669065266,-150.98623110260814,-37.577129394136136,1758422952.4297693,1758422952.450164
556,-51.61989587903372,-193.73301975481445,-229.8132437467575,-40.93415600560547,1758422952.4333568,1758422952.4540703
557,-56.969497902930016,-210.68151568772737,-258.8819050323218,-42.869047360742115,1758422952.4369442,1758422952.4579766
558,-58.644274865233456,-169.59648034535348,-154.84249608404934,-47.44663731403125,1758422952.4405317,1758422952.4618828
559,-68.05498844129033,-150.94094375352142,-81.35178761743009,-60.16250727501756,1758422952.4441192,1758422952.465789
560,-64.41635637592117,-188.2198760053143,-124.04631783440709,-62.90975485998206,1758422952.4477067,1758422952.4696953
561,-60.42189342164784,-269.641591454274,-316.2048157704994,-57.30124927512952,1758422952.451294,1758422952.4736016
562,-65.43441612941388,-231.37590751820244,-332.0234294626862,-53.88166586565785,1758422952.4548814,1758422952.4775078
563,-62.22923598361376,-87.01151885837317,-6.566357091534883,-53.51125759831484,1758422952.458469,1758422952.481414
564,-56.5454593700415,-149.12821825640276,-14.865867399610579,-58.07504840124602,1758422952.4622343,1758422952.4853203
565,-56.57373270543758,-228.61023016367108,-299.3228617957793,-55.01945593744313,1758422952.4659996,1758422952.4892266
566,-52.51526878977893,-117.30075972521445,-177.48847586335614,-50.32940847280406,1758422952.4697647,1758422952.4931328
567,-43.927606789337005,-111.17344968300313,-74.64483216963708,-46.033346992997394,1758422952.47353,1758422952.497039
568,-43.513026699147304,-180.2537906289799,-252.93776615709066,-34.55934776108916,1758422952.4772954,1758422952.5009453
569,-43.417836521650315,-157.87272501847474,-279.60662373993546,-35.64008944793022,1758422952.4810607,1758422952.5048516
570,-37.64252336946083,-117.80982956517255,-199.7397898202762,-41.95202131872429,1758422952.484826,1758422952.5087578
571,-34.68852404732024,-95.19940241071163,-146.57384628802538,-38.5390434507608,1758422952.4885914,1758422952.512664
572,-31.52654025281663,-125.95913126209052,-197.97202286776155,-36.50744016226599,1758422952.4923568,1758422952.5165703
573,-34.34523801642354,-143.13146293530008,-316.1247907606885,-31.982464512824663,1758422952.496122,1758422952.5204766
574,-38.87375965747924,-32.577643135155085,-137.28502529207617,-23.357412039506016,1758422952.4998872,1758422952.5243828
575,-31.247751726434217,12.799961121752858,57.87621586211026,-19.236870294473192,1758422952.5036526,1758422952.528289
576,-24.441959787000087,-100.83294663473498,-171.67706305114552,-16.869870472533876,1758422952.5074186,1758422952.5321953
577,-25.20894621645857,-73.93260469892994,-239.15498108044267,-18.165615595637973,1758422952.5111845,1758422952.5361016
578,-31.528359482166707,2.2965783374384046,-73.81895204586908,-26.78191399217394,1758422952.5149505,1758422952.5400078
579,-32.50847144177533,-55.65503403963521,-170.03702196665108,-27.804617062248326,1758422952.5187166,1758422952.543914
580,-20.743129981266975,-43.75868179346435,-197.49962185742334,-16.66422873424017,1758422952.5224824,1758422952.5478203
581,-18.007777920676745,-21.86636446043849,-139.9746339735575,-13.941483963228166,1758422952.5262485,1758422952.5517266
582,-9.799781473411713,1.087772113736719,-137.68981258105487,-18.48379909846699,1758422952.5300145,1758422952.5556328
583,5.459026189229917,61.55404924636241,-44.51737934118137,-11.97138509979959,1758422952.5337803,1758422952.559539
584,-10.909168979946116,4.751885406090878,-142.0849996227771,-2.4782261889849906,1758422952.5375464,1758422952.5634453
585,-21.070169386803173,53.329886665800586,-182.65872526867315,-0.557925787903514,1758422952.5413125,1758422952.5673516
586,-2.8700777339181514,197.21709688240662,129.0973744923249,1.675490033780079,1758422952.5450783,1758422952.5712578
587,0.2763245448222733,99.88698980747722,100.06387043371797,6.645493295898632,1758422952.5488443,1758422952.575164
588,-3.2541648180631455,31.322102725040168,-163.04353957250714,5.502319011331565,1758422952.5525951,1758422952.5790703
589,4.98570640746766,150.08948771993164,22.388527111150324,2.9314613509195624,1758422952.556346,1758422952.5829766
590,21.012779353979568,143.91215291828848,158.83479197742417,17.257528204878327,1758422952.5600967,1758422952.5868828
591,39.65960726313642,66.14786388340872,-16.14406959991902,31.528160496971395,1758422952.5638475,1758422952.590789
592,36.39646946474022,70.80664599942975,-43.0850622956641,16.70269493186788,1758422952.5675983,1758422952.5946953
593,14.049295674110908,86.45657906983979,55.69904355192557,-5.946168811926327,1758422952.5713491,1758422952.5986016
594,6.800179999070679,73.11288028489798,107.56182569265366,-9.181754509314487,1758422952.5751,1758422952.6025078
595,12.560282276483122,26.408245190395974,63.531634845305234,1.396799012167321,1758422952.5788507,1758422952.606414
596,13.587326872768244,-4.547892534988932,1.9697363274171948,16.15179417595209,1758422952.5826015,1758422952.6103203
597,13.77866531197651,62.86098215985112,176.2740808497183,22.673189601722697,1758422952.5863523,1758422952.6142266
598,15.046052519630393,78.92986923549324,303.9302453259006,20.833875696531322,1758422952.5901031,1758422952.6181328
599,16.227039924687688,-22.092054530745372,86.29017368657514,22.463880026349216,1758422952.593854,1758422952.622039
600,12.763858257897482,17.329793628421612,86.15596442157403,15.72589439630974,1758422952.5976112,1758422952.6259453
601,17.310828674393633,71.07308648130856,258.88609283883125,10.048695696299546,1758422952.6013682,1758422952.6298516
602,33.48248725098529,-12.581806936883368,115.83202827395871,14.065786636434495,1758422952.6051254,1758422952.6337578
603,24.250687658151946,-14.075131279067136,27.680080527905375,12.69434979284415,1758422952.6088827,1758422952.637664
604,6.205342575820396,28.869141870061867,125.59304279508069,17.513752481361735,1758422952.6126397,1758422952.6415703
605,10.291614660218329,34.77714719006326,144.34643088839948,18.714739801580436,1758422952.616397,1758422952.6454766
606,13.385183611244429,30.653859266545624,65.07852213364094,17.516354510793462,1758422952.6201541,1758422952.6493828
607,8.469088564688718,26.96869616024196,11.516641514375806,23.40447984614002,1758422952.6239111,1758422952.653289
608,7.933290923607274,92.93350982805714,123.03631324553862,16.871385427890345,1758422952.6276684,1758422952.6571953
609,18.258274671723484,139.22752728196792,267.35391584644094,15.227265138892108,1758422952.6314256,1758422952.6611016
610,19.727930447246763,49.10255236236844,178.97042683977634,18.944345903408248,1758422952.6351826,1758422952.6650078
611,1.1814268712041667,-19.615732972044498,12.240021483507007,10.29411416419316,1758422952.6389399,1758422952.668914
612,-4.549500103836181,24.1479343281826,85.57396039599553,-1.0743722975166747,1758422952.6428041,1758422952.6728203
613,4.79191894728865,13.844411855679937,133.79134554369375,-4.253659879235784,1758422952.6466687,1758422952.6767266
614,4.389489894841972,-58.98534280771855,-16.81277410266921,4.868284784824937,1758422952.650533,1758422952.6806328
615,-2.431754308337986,-71.91309989325237,-41.88135668588802,6.429595893394435,1758422952.6543975,1758422952.684539
616,-5.093382389313774,-30.273657794226892,85.33994954638183,-0.7986246017244412,1758422952.6582618,1758422952.6884453
617,-9.328000703630096,-40.14187618379947,93.04466151539236,-0.4635646300885128,1758422952.662126,1758422952.6923516
618,-12.141724748951674,-108.54019468626939,-76.32788771763444,-1.39504853769904,1758422952.6659906,1758422952.6962578
619,-1.4196825364779215,-90.816580475308,-120.41341880336404,0.5559877680789214,1758422952.6698549,1758422952.700164
620,11.545809536299203,1.1188119755825028,81.54839423112571,9.436916995036881,1758422952.6737194,1758422952.7040703
621,16.763037419965258,6.864644339773804,146.04461195552722,9.930411118228221,1758422952.6775837,1758422952.7079766
622,10.790110299145454,-58.05016712134238,-44.160373584832996,5.130474380974192,1758422952.6814482,1758422952.7118828
623,6.9972862245485885,-26.714659907389432,-49.90553268091753,4.755285695107887,1758422952.6853125,1758422952.715789
624,23.79032559992629,10.343353606411256,77.94836865505204,6.358859951287741,1758422952.690027,1758422952.7196953
625,22.805610205236007,-65.08174972678535,-29.36370785627514,8.78440650497214,1758422952.6947415,1758422952.7236016
626,2.5002193385880673,-88.76114378659986,-114.94712449330837,13.33561569286394,1758422952.699456,1758422952.7275078
627,1.61233773175627,-59.53904122894164,-30.985807353630662,16.861662213836098,1758422952.7041705,1758422952.731414
628,-7.034867240479798,-67.54747385508381,15.184282324276865,13.529569899576018,1758422952.708885,1758422952.7353203
629,-19.784208825294627,-103.30506642197724,-17.021527979988605,7.81685208179988,1758422952.7135997,1758422952.7392266
630,-8.202811726616346,-158.25919586222153,-112.14128050068393,10.966553595266305,1758422952.7183142,1758422952.7431328
631,-0.2150863378919894,-134.85958464827854,-101.68994636135176,19.442444773303578,1758422952.7230287,1758422952.747039
632,-1.3025935074401787,-44.55749081855174,139.8580506122671,17.577547600812977,1758422952.7277431,1758422952.7509453
633,5.965414907608647,-91.74191445461474,160.27583055431023,10.22007505147485,1758422952.7324576,1758422952.7548516
634,16.09462512146274,-180.6466317687882,-63.98133253445849,11.660653073224239,1758422952.7371721,1758422952.7587578
635,17.345073460935964,-101.30453775112983,61.312317282892764,11.875818718777737,1758422952.7418866,1758422952.762664
636,14.49420913058566,-71.98641152866185,174.09797084145248,8.26987922450644,1758422952.7457213,1758422952.7665703
637,19.77539125131443,-141.45178736385424,-6.999933028127998,11.722031820972916,1758422952.7495563,1758422952.7704766
638,23.38780131828389,-111.92242554505356,-13.382271963171661,16.445380119228503,1758422952.7533913,1758422952.7743828
639,23.862663673236966,-55.11487622675486,95.24493488948792,18.649225134548033,1758422952.757226,1758422952.778289
640,33.90470916079357,-47.734267368214205,117.90505286864936,23.77944332556217,1758422952.7610607,1758422952.7821953
641,42.738610809698,-99.8227778536966,-8.282259851694107,31.241788368060952,1758422952.7648957,1758422952.7861016
642,35.30496094195405,-134.86477174574975,-140.01561108138412,36.56909744514269,1758422952.7687306,1758422952.7900078
643,29.171338545595063,-27.70242977386806,56.031639157328755,28.097004465933423,1758422952.7725654,1758422952.793914
644,35.87839122788864,30.074513989151455,235.4101803759113,14.097490379499504,1758422952.7764,1758422952.7978203
645,30.744384769786848,-73.92168354662135,20.786259721964598,23.227618163567968,1758422952.780235,1758422952.8017266
646,18.98316734348191,-71.52695300139021,-108.14076752308756,33.80675817403244,1758422952.78407,1758422952.8056328
647,18.439056764997076,27.63900316215586,88.37115087360144,25.10061247384874,1758422952.7879047,1758422952.809539
648,23.58311878645327,-5.869158060988411,119.98926636530086,26.467957385641057,1758422952.7929528,1758422952.8134453
649,29.832890708261402,-58.04133456654381,-61.2562609273009,33.29798276539077,1758422952.7980008,1758422952.8173516
650,23.056613482214743,-8.18364437611308,-44.87522437982261,27.34394450104446,1758422952.803049,1758422952.8212578
651,17.005468629766256,18.14613578922581,30.960706220939755,26.84565197332995,1758422952.8080971,1758422952.825164
652,20.247324915457284,-10.562097840476781,-60.3303749691695,34.989755484915804,1758422952.8131452,1758422952.8290703
653,14.743157176009845,-24.01910663419403,-134.35180292185396,30.430341359809972,1758422952.8181934,1758422952.8329766
654,16.52312811362208,11.310710444580764,-96.05604842398316,18.405378186202142,1758422952.8232415,1758422952.8368828
655,20.358216181135504,81.51681955857202,10.327414830215275,12.013062747748336,1758422952.8282895,1758422952.840789
656,16.57054378237808,51.78222267795354,-28.10092153539881,2.6503888787701726,1758422952.8333375,1758422952.8446953
657,11.097416436154163,-34.517204026225954,-226.61431850865483,-4.136442357412307,1758422952.8383856,1758422952.8486016
658,-2.328252665087348,66.46409631043207,-135.64742109691724,-1.9020975613384508,1758422952.8434339,1758422952.8525078
659,3.3230513486487325,175.6534341048682,117.79229289013892,-0.38235148874809965,1758422952.848482,1758422952.856414
660,12.333178592380136,49.557748722378165,-4.408401022199541,-2.460509650729364,1758422952.8522658,1758422952.8603203
661,-1.9434267873584758,-11.493105837726034,-189.15429397393018,-7.68916199443629,1758422952.85605,1758422952.8642266
662,-0.2502673822455108,69.5074220240349,-69.54814486438408,-13.168718981440179,1758422952.859834,1758422952.8681328
663,0.3973370114690624,46.15849654772319,-21.096177652012557,-14.323143684712704,1758422952.863618,1758422952.872039
664,-20.379347842739662,-11.190529264626093,-117.97617653012276,-10.371021759259747,1758422952.8674018,1758422952.8759453
665,-21.01333649174194,-29.148811113554984,-155.3820163407363,-5.2270460308063775,1758422952.8711858,1758422952.8798516
666,-6.520879381947452,-1.8821047194069251,-110.91013970412314,-4.862151922250632,1758422952.87497,1758422952.8837578
667,-1.126501953753177,30.09475901222322,-8.356587535701692,-6.096948707214324,1758422952.878754,1758422952.887664
668,1.895767273788806,-34.497996252728626,-83.24262328189798,-8.430977504118346,1758422952.8825378,1758422952.8915703
669,-0.8651679147151299,-31.76140744157601,-180.6684062895365,-12.82658334390726,1758422952.886322,1758422952.8954766
670,-10.82460831591743,31.480709775001742,-39.74529381725006,-9.004525433469098,1758422952.890106,1758422952.8993828
671,-9.716408270323882,-32.343646195251495,-54.699326186673716,-3.2791372624924406,1758422952.89389,1758422952.903289
672,-1.4242816382611636,-78.91446455789264,-235.43214916065335,0.8304303899640217,1758422952.8963802,1758422952.9071953
673,-2.400021926529007,-36.76383175421506,-213.04835560824722,13.202906002930831,1758422952.8988705,1758422952.9111016
674,0.32172262549283914,24.80546870455146,-5.496796558611095,14.05178816843545,1758422952.9013608,1758422952.9150078
675,8.0603027564066,35.480120520922355,74.21231275633909,2.7820203620940447,1758422952.903851,1758422952.918914
676,1.4575141995446756,-69.05073732638266,-160.14576566778123,-0.8734240418416448,1758422952.9063413,1758422952.9228203
677,-3.129853449499933,-81.80192384053953,-230.57446148712188,-6.340308725310024,1758422952.9088316,1758422952.9267266
678,3.833013771189144,-7.353622779715806,-79.4351628976874,-8.603216303919908,1758422952.9113216,1758422952.9306328
679,-3.350379476469243,-29.620942316018045,-128.2691213293001,-8.324628425471019,1758422952.913812,1758422952.934539
680,-7.332904485811014,-70.53572589089163,-217.93295927275904,-11.01895224355394,1758422952.9163022,1758422952.9384453
681,5.957436801836593,-50.716177710331976,-189.3323199832812,-2.8124009119928814,1758422952.9187925,1758422952.9423516
682,11.516155515244463,10.073295643320307,-80.55226748343557,-1.9612681892467663,1758422952.9212828,1758422952.9462578
683,11.146727975894464,-40.0838692241814,-160.18984753615223,-4.720262830844149,1758422952.923773,1758422952.950164
684,6.2379827838158235,-118.8803964634426,-379.21776963584125,11.051700676674955,1758422952.92765,1758422952.9540703
685,5.5058768627932295,-14.17982373945415,-250.76911276881583,17.340784178115427,1758422952.9315267,1758422952.9579766
686,11.645176973950583,37.22593900654465,-94.44562093541026,10.64554696023697,1758422952.9354033,1758422952.9618828
687,9.211060118308524,-63.653471029829234,-272.22572563262656,12.405234377190936,1758422952.9392803,1758422952.965789
688,13.489036131417379,-71.5163620908279,-361.5467873455491,17.66037984401919,1758422952.9431572,1758422952.9696953
689,20.63539109690464,-21.03132263571024,-243.35185171407647,19.915719509706832,1758422952.947034,1758422952.9736016
690,22.21077481933753,-22.39276033290662,-206.47164068021812,19.550087991636246,1758422952.9509106,1758422952.9775078
691,28.413647086068522,-49.608901916770265,-291.5122096890118,22.643715025566053,1758422952.9547875,1758422952.981414
692,32.44274846604094,-91.004966130713,-370.9007353859488,26.194437588448636,1758422952.9586644,1758422952.9853203
693,33.8353596185334,-32.850651941029355,-225.51242675143294,28.440364000445697,1758422952.962541,1758422952.9892266
694,32.51169879408553,1.6924658857751638,-91.97036453709006,33.35273346345639,1758422952.9664178,1758422952.9931328
695,31.923855346511118,-100.26500872289762,-304.75755463773385,34.000324564869516,1758422952.9702947,1758422952.997039
696,37.721230548399035,-66.13816874148324,-316.233319275314,35.61266128701391,1758422952.9738925,1758422953.0009453
697,41.0292315032566,-20.988939029630274,-154.4737086975947,38.00265524798306,1758422952.9774902,1758422953.0048516
698,45.89647789794253,-118.11299811140634,-302.1184674371034,34.87550686072791,1758422952.981088,1758422953.0087578
699,48.134814837248996,-138.29246011027135,-377.91272626491264,36.67565582488896,1758422952.9846857,1758422953.012664
700,40.583674710884225,-128.16942912572995,-309.4912770774681,45.50435760768596,1758422952.9882834,1758422953.0165703
701,42.607861196564045,-130.6162036289461,-296.1437324916478,49.67545904923463,1758422952.9918811,1758422953.0204766
702,47.66739964892622,-128.2615868896246,-288.08837177068926,40.453093440271914,1758422952.9954789,1758422953.0243828
703,42.618255074718036,-185.2840968053788,-370.44801976764575,40.60684088175185,1758422952.9990766,1758422953.028289
704,42.81615824793698,-177.73682064027525,-385.5824447735213,57.57527705829125,1758422953.0026743,1758422953.0321953
705,39.99420514609665,-87.96759811765514,-144.25376525218599,51.602190591569524,1758422953.006272,1758422953.0361016
706,33.73775292397477,-134.04647654783912,-97.10994226997718,40.796008248464204,1758422953.0098698,1758422953.0400078
707,46.50274638016708,-223.0321511735674,-335.2533165910281,60.88458712142892,1758422953.0134676,1758422953.043914
708,61.83446626475779,-142.14240034273826,-217.56743420287967,75.1195748228929,1758422953.0172443,1758422953.0478203
709,64.84656563663157,-120.37880805064924,-66.94473467976786,67.65230196574703,1758422953.021021,1758422953.0517266
710,62.989297954540234,-203.88575092796236,-242.36489116959274,61.27028207562398,1758422953.0247977,1758422953.0556328
711,63.385121808503754,-177.21960877021775,-225.59731749794446,62.52644075691933,1758422953.0285745,1758422953.059539
712,73.84814372914843,-149.5457907114178,-121.73995030811056,64.89212126767961,1758422953.0323513,1758422953.0634453
713,81.22666968597332,-199.60335450503044,-168.06834507826716,55.51869534427533,1758422953.036128,1758422953.0673516
714,83.31508188403677,-252.07440576539375,-268.5009367526509,52.86897880863398,1758422953.0399046,1758422953.0712578
715,80.38664669857826,-259.8960729443934,-316.3110310062766,68.37856976490002,1758422953.0436814,1758422953.075164
716,60.97593873000005,-170.98258471675217,-95.5996815674007,65.29257907310966,1758422953.0474582,1758422953.0790703
717,43.88594746682793,-155.09562928881496,63.823549163062125,50.950003223726526,1758422953.0512347,1758422953.0829766
718,38.062832679308485,-286.6826160394121,-158.14189867605455,51.41276153922081,1758422953.0550115,1758422953.0868828
719,36.087624554522336,-271.3301144717261,-196.00771080423146,46.79379747569328,1758422953.0587883,1758422953.090789
720,37.35518333141226,-219.1632528800983,-17.198275772156194,36.7185722765862,1758422953.063684,1758422953.0946953
721,30.9416949483566,-313.6330421981402,-127.00805777148344,29.77573713491438,1758422953.0685797,1758422953.0986016
722,25.88241118332371,-320.49493843805976,-218.45583666977473,26.44372535625007,1758422953.0734754,1758422953.1025078
723,31.36609302746365,-268.13324956432916,-100.98724474641494,36.38567777199205,1758422953.0783708,1758422953.106414
724,29.36373346153414,-253.80006483453326,-43.696566400816664,40.27249228552682,1758422953.0832665,1758422953.1103203
725,23.625184405653272,-277.2305714278482,-122.85360122774728,30.072130871471018,1758422953.0881622,1758422953.1142266
726,19.605219571618363,-297.2310414297972,-222.95707328012213,27.434016002574936,1758422953.0930579,1758422953.1181328
727,15.565901796217076,-182.54618232580833,-104.11778724053875,25.232297529117204,1758422953.0979536,1758422953.122039
728,20.220260881760623,-121.46564375073649,73.45846401783638,17.798352053388953,1758422953.102849,1758422953.1259453
729,17.188178807671648,-233.03066222416237,-64.37788450228982,16.79996843531262,1758422953.1077447,1758422953.1298516
730,8.18520529975649,-254.6300805383362,-212.54853996727616,19.717309190309606,1758422953.1126404,1758422953.1337578
731,9.423752046190202,-136.0266068968922,-12.516653274651617,20.304671783640515,1758422953.117536,1758422953.137664
732,9.605411180993542,-93.32126601901837,90.59586747316644,12.353214793489315,1758422953.121263,1758422953.1415703
733,11.318253663368523,-140.79474311391823,-70.39345655729994,1.5665629603900015,1758422953.12499,1758422953.1454766
734,11.110348222136963,-119.7928643852938,-78.04348034388386,-0.05489163316087797,1758422953.1287167,1758422953.1493828
735,7.504844176699407,-50.222880384884775,36.727749715559185,2.1969814898329787,1758422953.1324437,1758422953.153289
736,6.022735339589417,-55.70589082222432,51.01177719421685,-1.6027428566594608,1758422953.1361706,1758422953.1571953
737,-7.595963028667029,-113.86099351779558,-65.00004805368371,-11.28785049909493,1758422953.1398973,1758422953.1611016
738,-17.825856626208406,-91.96721264580265,-140.42247370351106,-11.746732323721517,1758422953.1436243,1758422953.1650078
739,-13.268847480707336,26.93677831860259,52.65432689129375,-4.313038618129212,1758422953.1473513,1758422953.168914
740,-12.775231495848857,32.1151116641704,144.68966323533095,-6.802460463484749,1758422953.1510782,1758422953.1728203
741,-13.39558721362846,-45.677138121565804,-58.64654581435025,-8.830054570513312,1758422953.1548052,1758422953.1767266
742,-10.230337643472012,27.383367360103875,-28.307813549996354,-3.313145254680421,1758422953.158532,1758422953.1806328
743,-10.388020228594542,84.35317840380594,139.1548496419564,-4.026799639163073,1758422953.1622589,1758422953.184539
744,-10.704266090644524,31.63228527759202,61.02971662895288,-7.2621515054488555,1758422953.1661367,1758422953.1884453
745,-14.030693851877004,30.002507687546313,-13.270874927169643,-13.184524815180339,1758422953.1700149,1758422953.1923516
746,-30.737363434571307,50.16265425644815,36.357082461123355,-26.80948411661666,1758422953.1738927,1758422953.1962578
747,-40.129603653156664,56.45959180640057,75.43089858058374,-33.59713107638527,1758422953.1777706,1758422953.200164
748,-28.369680651463568,21.09845354198478,19.92175448371563,-34.042004518501926,1758422953.1816485,1758422953.2040703
749,-27.752531097619794,-52.77009150036611,-140.8872406281298,-35.007766955241095,1758422953.1855264,1758422953.2079766
750,-38.87714986182982,-19.024966085329652,-158.24497303448152,-33.40976570505882,1758422953.1894045,1758422953.2118828
751,-28.69908672501333,96.91578975645825,89.25576976139564,-32.20979868801078,1758422953.1932824,1758422953.215789
752,-17.22079643519828,61.32321171136573,116.30243138002697,-30.77524176298175,1758422953.1971602,1758422953.2196953
753,-29.956765880109742,-40.99658945365809,-133.91633802687284,-27.18822535709478,1758422953.2010384,1758422953.2236016
754,-30.922383424651343,36.029383457731456,-46.562266940949485,-21.504553331644274,1758422953.2049162,1758422953.2275078
755,-13.50675175577635,92.43955247895792,82.6384067289764,-16.688102381129283,1758422953.208794,1758422953.231414
756,-14.254531768907327,30.31332347006537,-86.81131605023984,-14.883811695326585,1758422953.2125955,1758422953.2353203
757,-18.364453920396045,38.56944357138127,-129.17854269128293,-11.49278724344913,1758422953.2163968,1758422953.2392266
758,-12.622343058756087,87.15856002108194,-67.67730785533786,-8.548104679153766,1758422953.2201982,1758422953.2431328
759,-7.7237283940194175,118.18172491481528,-6.413604478118941,-5.982345999975223,1758422953.2239995,1758422953.247039
760,5.31760698108701,82.0961269182153,-42.740615778253414,1.3079165022354573,1758422953.2278008,1758422953.2509453
761,9.968201391980983,25.955895009450614,-231.7157289122697,0.09064053994370624,1758422953.2316022,1758422953.2548516
762,5.232999811822083,113.51158817857504,-130.46938734059222,-5.098981145478319,1758422953.2354033,1758422953.2587578
763,15.113591637928039,182.72190064331517,73.97026737674605,6.278858453501016,1758422953.2392046,1758422953.262664
764,17.067918497952633,87.1176801645197,-111.70846010476816,9.923100458283443,1758422953.243006,1758422953.2665703
765,-3.6336754265939817,54.0168824121356,-287.9740313080838,-0.81897810701048,1758422953.2468073,1758422953.2704766
766,-18.753721210348886,158.47744231205434,-91.68410459544975,-1.2359041806194,1758422953.2506087,1758422953.2743828
767,-12.907761358073913,169.57573573011905,22.125005379784852,-0.030102840973995626,1758422953.25441,1758422953.278289
768,-2.83436887426069,86.04894838365726,-169.28363049402833,0.5420018762233667,1758422953.2580833,1758422953.2821953
769,1.6898633890668862,128.64780029584654,-173.14605892886175,5.643040977302007,1758422953.2617564,1758422953.2861016
770,4.893677134648897,176.41517824074253,-56.91204446728807,11.01124336651992,1758422953.2654297,1758422953.2900078
771,5.4734041529591195,104.33919398556463,-166.51531041995622,13.09776230744319,1758422953.269103,1758422953.293914
772,1.3750413481611758,82.26527150534093,-226.18306083476637,6.261102898744866,1758422953.2727764,1758422953.2978203
773,-7.7938584727817215,104.70110765681602,-183.07706885994412,4.226361674955115,1758422953.2764497,1758422953.3017266
774,-4.533726288413163,126.2068008093629,-142.0804140486871,8.342175747908186,1758422953.2801228,1758422953.3056328
775,6.990147728996817,140.90530251595192,-95.18727874779142,8.624715022102464,1758422953.283796,1758422953.309539
776,2.8783218470052816,75.9333809139207,-203.31245766283246,8.05537690629717,1758422953.2874694,1758422953.3134453
777,1.3042551944963634,99.87890649819747,-232.87758690980263,4.71368308737874,1758422953.2911425,1758422953.3173516
778,6.770794823416509,222.1876272824593,27.093788761703763,6.671120900136884,1758422953.2948158,1758422953.3212578
779,7.176598543068394,147.6860871622339,24.208687405858655,11.153820114443079,1758422953.298489,1758422953.325164
780,12.660991759388708,64.7182477102615,-204.7307581778732,10.251176607969683,1758422953.3022652,1758422953.3290703
781,17.138845294422936,150.03967619268224,-98.17809329234296,13.403656663023867,1758422953.3060412,1758422953.3329766
782,17.027030569210183,149.56475220108405,-14.724213881854666,16.308905657788273,1758422953.3098173,1758422953.3368828
783,21.355778835655656,119.4451550799422,-125.17391022885568,19.991079482482746,1758422953.3135934,1758422953.340789
784,29.075689711782616,155.60257274564356,-122.68462827947224,28.05374655907508,1758422953.3173695,1758422953.3446953
785,38.13020550116198,163.84999643545598,-97.71078864182346,29.012164514919277,1758422953.3211455,1758422953.3486016
786,42.32969291124027,174.1922967536375,-82.06608723066165,33.28949487832142,1758422953.3249216,1758422953.3525078
787,40.71889555180678,170.4957702551037,-102.36720362471533,41.2237798810238,1758422953.3286977,1758422953.356414
788,34.82514500035904,154.5064989272505,-169.20476679879357,39.112964206549805,1758422953.3324738,1758422953.3603203
789,30.330724917643238,262.3416737909429,8.43748731922824,46.00044197536772,1758422953.3362498,1758422953.3642266
790,39.997390732110944,316.2644217722118,178.55824869696517,54.10017175797839,1758422953.340026,1758422953.3681328
791,51.57363149768207,181.0506344847381,-51.240687622732366,45.73390124144498,1758422953.343802,1758422953.372039
792,53.07676325144712,206.76371618919075,-101.38518437806852,44.0953912147088,1758422953.3475642,1758422953.3759453
793,51.90757537382888,274.6005672318861,61.629545866184344,50.090382222959306,1758422953.3513265,1758422953.3798516
794,51.017725095385686,180.3033840926364,-72.74961417921804,50.27926791040227,1758422953.3550887,1758422953.3837578
795,48.46985849447083,192.91109140729532,-134.66222707256384,50.504167417413555,1758422953.3588507,1758422953.387664
796,46.49922357627656,230.77170627424493,-40.702015003873385,53.57006234221626,1758422953.362613,1758422953.3915703
797,47.386026838154066,196.53241259325296,-77.30326469731517,54.13929005811224,1758422953.3663752,1758422953.3954766
798,46.10845449537737,181.9603780596517,-155.5193486368953,51.85269617009908,1758422953.3701375,1758422953.3993828
799,44.82100266654743,185.19196169776842,-173.1829725097341,52.2697640414699,1758422953.3738997,1758422953.403289
800,50.75117093633162,239.69484941847622,-100.5817944870796,55.11173060792498,1758422953.3776617,1758422953.4071953
801,61.66387471719645,277.71315783960745,-14.386236114078201,55.3628384792828,1758422953.381424,1758422953.4111016
802,56.126864992198534,224.93810998136178,-50.38236155809136,48.72833348280983,1758422953.3851862,1758422953.4150078
803,33.18057796865469,166.78169783111662,-171.07624932617182,41.05086478241719,1758422953.3889484,1758422953.418914
804,28.38695398985874,216.9167480962351,-113.77526615175884,39.97697821032489,1758422953.393958,1758422953.4228203
805,37.81489099224564,281.94694370636716,11.304698787396774,40.08833251037868,1758422953.3989677,1758422953.4267266
806,40.478480460413266,231.85998749779537,-106.10050821059849,39.607612376566976,1758422953.4039774,1758422953.4306328
807,38.60310492198914,232.5280065117404,-155.7903552938369,41.19520135514904,1758422953.408987,1758422953.434539
808,33.72715491167037,296.66052509937435,-34.817681298649404,39.491946174704935,1758422953.4139967,1758422953.4384453
809,33.904374926991295,254.4318193322979,-81.03744617546909,31.016364030365366,1758422953.4190063,1758422953.4423516
810,32.76150646083988,213.65115538006648,-203.9551488420111,22.211913359176833,1758422953.4240162,1758422953.4462578
811,24.359994620201178,237.6182791031897,-220.37206628877902,17.276108107413165,1758422953.429026,1758422953.450164
812,27.942884092160966,306.63943636836484,-63.293123256473336,11.907109090476297,1758422953.4340355,1758422953.4540703
813,40.89531615935266,345.5739155653864,51.028937976341695,12.656797577568796,1758422953.4390452,1758422953.4579766
814,39.23374782252358,262.26030331104994,-133.78964946896303,24.001780645223334,1758422953.4440548,1758422953.4618828
815,33.05438275489723,271.36609087418765,-173.97736533381976,29.643603886594065,1758422953.4490645,1758422953.465789
816,40.15325968666002,343.5297967889346,-24.280647016945295,28.448990876495373,1758422953.4527094,1758422953.4696953
817,38.278640789329074,289.286435126327,-66.9082322854083,25.955635441525374,1758422953.4563544,1758422953.4736016
818,23.02047713001957,241.2476404607296,-154.59665085491724,14.213956482941285,1758422953.4599996,1758422953.4775078
819,13.418017935880926,276.87832163413987,-132.5205845721066,6.443698219081853,1758422953.4636445,1758422953.481414
820,11.354040078411344,301.59609701810405,-15.131269134464674,13.142696620023344,1758422953.4672894,1758422953.4853203
821,15.461031372833531,205.65211046021432,-73.87637731723953,20.391959661326837,1758422953.4709344,1758422953.4892266
822,12.033794715593103,145.28418672643602,-222.19307282799855,21.678698309406172,1758422953.4745793,1758422953.4931328
823,5.061585274350364,220.3688523406163,-68.76992471434642,18.867278767749667,1758422953.4782243,1758422953.497039
824,14.812759867287241,229.96789132570848,33.3418547490146,18.502550579898525,1758422953.4818692,1758422953.5009453
825,21.313079045328777,165.48453832278028,-108.91332635644358,19.22879457194358,1758422953.4855144,1758422953.5048516
826,13.384267361252569,118.78841947158799,-223.82154349342454,19.663042417145334,1758422953.4891593,1758422953.5087578
827,15.671762308862526,182.8675729529932,-134.56413744878955,26.53981512779137,1758422953.4928043,1758422953.512664
828,24.668064125580713,259.06587610719725,66.4376591820037,30.290708648914006,1758422953.496482,1758422953.5165703
829,22.06107535038609,139.81614148803055,-61.07197788963094,30.006249793805182,1758422953.5001595,1758422953.5204766
830,19.331602309597656,81.19110316596925,-262.3644662500592,31.013219402520917,1758422953.503837,1758422953.5243828
831,25.974750626657624,179.25988498702645,-89.24047917302232,30.983932729170192,1758422953.5075145,1758422953.528289
832,29.632054896617774,176.79892394365743,4.812442051712424,29.565513062814716,1758422953.511192,1758422953.5321953
833,25.68179201532621,95.35574048385024,-182.49832493904978,23.83282970963046,1758422953.5148697,1758422953.5361016
834,24.523536069667898,79.28435450885445,-259.95439073455054,24.96526740246918,1758422953.5185473,1758422953.5400078
835,22.933940504677594,192.6191857974045,-42.79096053051762,28.160444778157398,1758422953.522225,1758422953.543914
836,15.108632311632391,232.43596413731575,105.03387393685989,19.895223872445058,1758422953.5259023,1758422953.5478203
837,11.533980950771365,113.25559955928475,-103.89357039844617,15.381823153002188,1758422953.5295799,1758422953.5517266
838,7.93397400691174,152.17185677820817,-152.2845671691466,17.78304938710062,1758422953.5332575,1758422953.5556328
839,3.823448850598652,237.3361322088167,61.953753381967545,16.048990930605214,1758422953.536935,1758422953.559539
840,7.330465087085031,144.0210522422567,29.092870436841622,10.506562025693711,1758422953.5408235,1758422953.5634453
841,4.060884820704814,107.17378261545673,-93.50781540502794,7.352677776536439,1758422953.5447118,1758422953.5673516
842,-1.78346178017091,183.1603639908135,-7.1801060296129435,5.72212918481091,1758422953.5486002,1758422953.5712578
843,-1.5457394600380212,187.02676218003035,87.2057789687533,2.741045820817817,1758422953.5524886,1758422953.575164
844,-2.552797249285504,96.8713668663986,0.9575003592763096,6.107876357971691,1758422953.556377,1758422953.5790703
845,0.40501789608970284,47.604123807512224,-112.8589318646118,18.509078227507416,1758422953.5602653,1758422953.5829766
846,-4.563083443557844,106.47231690771878,-37.56164806173183,26.28667342226254,1758422953.5641537,1758422953.5868828
847,-13.328782654658426,177.6263751136139,197.84568335697986,17.508214424189646,1758422953.568042,1758422953.590789
848,-7.055458196497057,107.83815712155774,218.60611363966018,7.118793602916412,1758422953.5719304,1758422953.5946953
849,-5.199988606094848,-6.839242567773908,-10.642664495389909,0.1971273405943066,1758422953.5758188,1758422953.5986016
850,-4.11473206046503,47.65348734520376,77.37726809433661,-16.15228223858867,1758422953.5797071,1758422953.6025078
851,6.109118076972663,85.05605776282027,264.921103436267,-20.31186817289563,1758422953.5835955,1758422953.606414
852,10.778027624357492,-5.586796491872519,124.23691964615136,-11.04117565730121,1758422953.587362,1758422953.6103203
853,20.28602614084957,-21.99365596054122,71.85110930912197,-9.614925467700232,1758422953.5911286,1758422953.6142266
854,28.868725391861517,23.21772593166679,209.40012297825888,-6.721470911579672,1758422953.5948954,1758422953.6181328
855,23.639319525274914,20.494967913255095,265.29423068114556,-5.2493858256493695,1758422953.598662,1758422953.622039
856,20.33928167197155,-23.2792688626796,201.90388998459093,0.35320172633510083,1758422953.6024284,1758422953.6259453
857,6.918541126942728,-34.41860547428951,149.66808180953376,11.580365905771032,1758422953.606195,1758422953.6298516
858,-11.94053558894666,4.8064571232534945,205.54066675389186,5.496943533187732,1758422953.6099615,1758422953.6337578
859,-5.815521366603207,28.76129810931161,290.8006911620032,-2.143384698079899,1758422953.613728,1758422953.637664
860,4.5272440812550485,5.062020895536989,271.83677595318295,0.5642835131147876,1758422953.6174946,1758422953.6415703
861,3.4204914388246834,-16.703644618857652,168.88363808160648,-1.193930556299165,1758422953.6212614,1758422953.6454766
862,1.293625762744341,84.64516748394817,327.50797980534844,-4.155877323122695,1758422953.625028,1758422953.6493828
863,7.35066639946308,154.44680708786473,551.6947385498788,0.3154611380887218,1758422953.6287944,1758422953.653289
864,14.015638360928278,64.71595767233521,374.7622354149353,2.8500701766461134,1758422953.6325486,1758422953.6571953
865,0.4266577141243033,108.40728003159165,335.00280562927946,-8.090283150784671,1758422953.6363027,1758422953.6611016
866,2.7435605040518567,181.4324497245252,518.6716020503081,-6.757579656259622,1758422953.6400568,1758422953.6650078
867,13.889243594487198,102.11697998968884,429.968286792282,8.310063253622502,1758422953.643811,1758422953.668914
868,-14.175235107366461,109.15676698694006,368.59238108526915,-5.833638561074622,1758422953.6475651,1758422953.6728203
869,-23.72355027141748,149.82075149938464,435.5186412895564,-20.251631256192923,1758422953.6513193,1758422953.6767266
870,-7.143621070368681,183.61623262707144,501.2560136737302,-3.167053578537889,1758422953.6550734,1758422953.6806328
871,-13.974293384468183,233.13408124214038,582.9691337633412,-2.547356453840621,1758422953.6588275,1758422953.684539
872,-13.106546106457245,187.49442550120875,499.6773940974381,-14.982876561000012,1758422953.6625817,1758422953.6884453
873,-8.355744665954262,242.99012996116653,493.99944691103883,-5.54687777464278,1758422953.6663358,1758422953.6923516
874,-10.514434196869843,370.9030251405202,732.2724158999044,-0.9791571405366994,1758422953.67009,1758422953.6962578
875,6.513973843480926,290.4064395991154,700.8244701100048,-8.561632322904188,1758422953.673844,1758422953.700164
876,11.433386898075696,217.4326820038259,496.8433701430913,-4.9109537864569575,1758422953.6776521,1758422953.7040703
877,2.6479184164782055,331.2854044698179,661.343213173328,0.1823553956928663,1758422953.6814601,1758422953.7079766
878,10.835115778958425,366.543759285938,807.2649772579316,-2.7307835731771775,1758422953.6852682,1758422953.7118828
879,10.286868515366223,289.39465683791786,650.0703556668013,-1.9231299239909276,1758422953.6890762,1758422953.715789
880,7.403499431908131,307.5495221186429,635.5677930926904,1.8505756937083788,1758422953.6928842,1758422953.7196953
881,17.416225957800634,344.82187091140077,727.4709408138879,4.5355747996945865,1758422953.6966922,1758422953.7236016
882,10.152510678221006,314.54689752776176,693.4268526574597,6.639024739502929,1758422953.7005002,1758422953.7275078
883,0.14118295209482312,298.75465616583824,631.3699560910463,2.1791666209464893,1758422953.7043083,1758422953.731414
884,6.072931045200676,285.98370683472604,587.7531074839644,-2.6681900530820712,1758422953.7081163,1758422953.7353203
885,7.528381949290633,357.2106698048301,732.4678406585008,-3.118204142199829,1758422953.7119243,1758422953.7392266
886,3.493679901235737,410.20835097692907,844.2855050261132,-4.355352664773818,1758422953.7157323,1758422953.7431328
887,-2.0233124514343217,294.00639677327126,587.1356695313007,-4.83955217548646,1758422953.7195404,1758422953.747039
888,-9.449269613891374,328.25898094987497,544.8713588723913,-5.365649388579186,1758422953.7232325,1758422953.7509453
889,-13.829473873076495,423.9744551018812,732.4689537007362,-5.834832276101224,1758422953.7269247,1758422953.7548516
890,-16.64813199872151,330.06468817498535,606.3490143441595,-11.573511948692612,1758422953.7306168,1758422953.7587578
891,-22.913926273584366,304.4360813400708,483.0706825568341,-21.36217878496973,1758422953.734309,1758422953.762664
892,-31.72384862904437,356.3314151512459,532.4955013087019,-21.567261055170093,1758422953.738001,1758422953.7665703
893,-33.553525887138676,357.64931159000844,547.8155408888124,-18.363987347693183,1758422953.7416935,1758422953.7704766
894,-25.396841993031558,334.8791082371026,485.11172797810286,-18.26162256335374,1758422953.7453856,1758422953.7743828
895,-13.985728638072032,324.9532324974425,410.10901369154453,-14.862665727850981,1758422953.7490778,1758422953.778289
896,-9.733384572260547,385.77462388714775,472.71887539932504,-7.029478237556759,1758422953.75277,1758422953.7821953
897,-16.67822466394864,427.1566581809893,585.8426261083223,-5.3782313175615855,1758422953.756462,1758422953.7861016
898,-18.562206204223912,342.5230083409697,499.02217450132594,-11.348741762980353,1758422953.7601542,1758422953.7900078
899,-6.976162011385895,261.6763868215494,319.1687375800684,-5.866185998427682,1758422953.7638464,1758422953.793914
900,-3.686463513120543,322.810753823258,390.0851504220627,-1.400264420255553,1758422953.767706,1758422953.7978203
901,-9.837060263904277,362.7655398081988,489.95727678062394,-5.058234672411345,1758422953.7715654,1758422953.8017266
902,-3.6236052302410826,282.58826095610857,339.52499719616026,11.603217401308939,1758422953.775425,1758422953.8056328
903,7.173387754126452,276.8539416838903,294.2300634374842,26.118041312438436,1758422953.7792845,1758422953.809539
904,20.45189021155238,355.84934897325,448.51511731371284,20.825180133688264,1758422953.783144,1758422953.8134453
905,38.692395977675915,339.71979201678187,475.6016835370101,22.42733637924539,1758422953.7870035,1758422953.8173516
906,42.909185028402135,267.00777792558074,334.4463197742589,26.75399462756468,1758422953.7908633,1758422953.8212578
907,35.05307543935487,268.54400145844556,303.9024430764839,25.603902319679037,1758422953.7947228,1758422953.825164
908,26.163449537707493,334.6563196189236,490.5179754071869,20.104523326735944,1758422953.7985823,1758422953.8290703
909,22.86345261632232,345.8494597938843,571.0850954647176,19.197274093225133,1758422953.8024418,1758422953.8329766
910,28.595109325135127,270.008604476694,416.922317573335,30.99640631728107,1758422953.8063014,1758422953.8368828
911,37.544238185335416,285.1904355282895,409.5823521199636,33.073823032318614,1758422953.8101609,1758422953.840789
912,50.50516765593784,322.368627499789,534.4652164215222,30.621462299779523,1758422953.8148775,1758422953.8446953
913,55.677664719347376,230.61486283084378,457.9910843167454,37.40011088177562,1758422953.8195941,1758422953.8486016
914,52.21555457293289,197.45746655995026,371.983329127077,37.374946298252326,1758422953.8243108,1758422953.8525078
915,58.58179850742454,240.12673299759626,450.76677965419367,39.45523013261845,1758422953.8290274,1758422953.856414
916,54.17937026772415,226.62132450332865,478.2735303733498,44.15296948479954,1758422953.833744,1758422953.8603203
917,37.569087441661395,177.91541713895276,395.41234246548265,39.05886783049209,1758422953.8384607,1758422953.8642266
918,44.565705746703316,144.11021916288882,351.56357233878225,41.71405844815308,1758422953.8431773,1758422953.8681328
919,57.44347843964351,162.970252786763,384.31322318222374,48.865114737069234,1758422953.847894,1758422953.872039
920,47.9130921465694,230.6060215451289,525.898921394255,43.93484356428962,1758422953.8526106,1758422953.8759453
921,34.68515872984426,198.37663451978005,561.5288129020482,34.41713585751131,1758422953.8573272,1758422953.8798516
922,33.12293548701564,72.59017615090124,345.6095736064017,29.996742948249448,1758422953.8620439,1758422953.8837578
923,33.331773574696854,104.90819181269035,368.88379984069616,33.07673643459566,1758422953.8667605,1758422953.887664
924,30.265405828831717,150.51016790652648,486.9175563608296,29.102428823302034,1758422953.8706074,1758422953.8915703
925,28.52497101703193,68.68268163176253,344.73427192121744,21.04779966600472,1758422953.8744543,1758422953.8954766
926,34.02210713329259,63.94901284901425,328.38353951089084,30.784306174726225,1758422953.8783011,1758422953.8993828
927,43.81273382582003,94.3966594634112,418.03100112173706,35.7848315332667,1758422953.882148,1758422953.903289
928,37.80703936901409,71.44201164320111,410.1623319098726,27.543962635740172,1758422953.885995,1758422953.9071953
929,28.162048368598334,-0.23828783980570734,304.18698630901054,30.714554779347964,1758422953.889842,1758422953.9111016
930,38.117801972082816,-51.14746870286763,183.08928805682808,40.623124292411376,1758422953.893689,1758422953.9150078
931,48.886267488473095,52.74598797154613,325.56374687328935,50.32767621439416,1758422953.8975358,1758422953.918914
932,53.89683991955826,122.74331666342914,510.0201307553798,54.723078471259214,1758422953.9013827,1758422953.9228203
933,61.177407764364034,14.602445442928001,348.08485122025013,56.55860365356784,1758422953.9052296,1758422953.9267266
934,60.81529264646815,-5.108864375855774,197.53470825171098,60.58154801587807,1758422953.9090765,1758422953.9306328
935,48.90976438642247,100.84895615605637,363.4192713974044,55.02348002814688,1758422953.9129233,1758422953.934539
936,42.864962733583525,77.16407965053804,411.90780776692554,53.15658213471761,1758422953.916752,1758422953.9384453
937,51.92963211995084,-1.068362862803042,241.95720948046073,60.59637298900634,1758422953.9205809,1758422953.9423516
938,63.20041008578846,45.824814178282395,279.6796864187345,65.13552613178035,1758422953.9244094,1758422953.9462578
939,61.668290552392136,75.07658286066726,368.1460975925438,60.754462990676984,1758422953.9282382,1758422953.950164
940,39.48439820698695,12.10867147706449,251.87720928154886,38.60504338575993,1758422953.932067,1758422953.9540703
941,29.32625670894049,-24.42323992610909,166.3621991230175,27.525905725487974,1758422953.9358957,1758422953.9579766
942,44.25356359110447,2.528373290784657,215.0273249926977,37.05478419625433,1758422953.9397244,1758422953.9618828
943,45.53064133570297,60.84359211334959,327.74948151037097,28.897725708724465,1758422953.9435532,1758422953.965789
944,40.69343830936123,23.451565359486267,291.0877690182533,15.674661319237202,1758422953.947382,1758422953.9696953
945,37.46564643830061,-79.41233416344039,81.81099587702192,23.3387679507141,1758422953.9512105,1758422953.9736016
946,26.214445191901177,-0.8013369117397815,151.77720828005113,31.691831393167377,1758422953.9550393,1758422953.9775078
947,19.03645882452838,104.86530698556453,399.3100255667232,22.168270151945762,1758422953.958868,1758422953.981414
948,8.702468889765441,-21.41202835040167,264.65931441728026,11.391794889234006,1758422953.9626138,1758422953.9853203
949,5.603789179818705,-95.81334668304771,43.02789153531194,13.515008383081295,1758422953.9663596,1758422953.9892266
950,16.37998300063191,-3.9719543154351413,173.76365211512893,12.212074251729064,1758422953.9701054,1758422953.9931328
951,15.480612984858453,-15.91868175053969,241.60838626441546,11.426682302262634,1758422953.9738512,1758422953.997039
952,4.231304062413983,-82.45950975315645,84.77838303148746,14.103315001702867,1758422953.977597,1758422954.0009453
953,-2.6608202586648986,-90.92333414568566,13.376132855657488,10.174234196427278,1758422953.9813428,1758422954.0048516
954,-0.6533477025222965,-74.29594718269072,56.34759468701668,10.64763461635448,1758422953.9850883,1758422954.0087578
955,5.286801247828407,-37.84032127354294,154.79535297653638,3.6245807095547207,1758422953.9888341,1758422954.012664
956,1.8517370303161442,-101.31728867418133,69.895088609308,-8.14555733295856,1758422953.99258,1758422954.0165703
957,-10.492241076251958,-189.61090256390162,-158.29381690570153,-3.519222520815674,1758422953.9963257,1758422954.0204766
958,-17.658635550062172,-87.28329555108212,4.791096840985119,-3.5694380700588226,1758422954.0000715,1758422954.0243828
959,-19.865028902480844,-47.23315118835308,158.12709666788578,-11.839706236089114,1758422954.0038173,1758422954.028289
960,-16.61897679590038,-159.92177355231252,-122.7514526550658,-10.959537805407308,1758422954.0076838,1758422954.0321953
961,-4.612309713556897,-91.0489154276438,-117.20724922209047,-6.461393364268588,1758422954.0115504,1758422954.0361016
962,-1.4108107445936184,-29.167271591955796,64.68449633172713,-6.203113598108757,1758422954.0154169,1758422954.0400078
963,-5.218637389305513,-142.50370895152446,-98.55298507679254,-6.326119858393213,1758422954.0192833,1758422954.043914
964,-6.000090170156909,-170.80832056992222,-222.22374748298898,-2.2899919463088736,1758422954.02315,1758422954.0478203
965,-7.172326054860605,-151.42182301275898,-207.60751147358678,-1.32632640178781,1758422954.0270164,1758422954.0517266
966,-2.8128385386953596,-131.28406789759174,-185.19215926667675,-2.1259175328887068,1758422954.0308828,1758422954.0556328
967,-4.326229030848481,-112.55616641207598,-170.0153745948337,-4.005619370640488,1758422954.0347495,1758422954.059539
968,-13.957639213622315,-183.35961825819686,-291.97614542627707,-10.090946925542085,1758422954.038616,1758422954.0634453
969,-12.416851810558,-152.97876189928502,-307.5531235681847,-4.399357465503272,1758422954.0424824,1758422954.0673516
970,-10.275037264102139,-66.78135740815196,-117.48752786265686,2.0624931807396933,1758422954.046349,1758422954.0712578
971,-14.23498008021852,-178.2612909778254,-207.56486547202803,-5.627009054413065,1758422954.0502155,1758422954.075164
972,-17.514017980196513,-246.08712945214938,-424.76354842144065,-8.982909640297294,1758422954.0539732,1758422954.0790703
973,-26.385575142106973,-178.44148764188867,-335.64571204665117,-11.983499321708223,1758422954.057731,1758422954.0829766
974,-28.199587611365132,-205.2810269156471,-316.24879227392375,-19.09616266732337,1758422954.0614886,1758422954.0868828
975,-21.587396044516936,-237.82069540617522,-428.0224777664989,-22.242346477898536,1758422954.0652463,1758422954.090789
976,-26.80472530858242,-217.7537041195901,-402.21934946626425,-25.40577883302467,1758422954.069004,1758422954.0946953
977,-33.699383817089256,-225.37034604954533,-384.58653254713863,-25.657412452361314,1758422954.072762,1758422954.0986016
978,-34.51881573814899,-232.0014216216514,-385.211955871433,-27.71170132723637,1758422954.0765197,1758422954.1025078
979,-36.505020775221055,-259.0277689755894,-409.35355859063566,-28.483390880777733,1758422954.0802774,1758422954.106414
980,-36.963135972298915,-293.91151961591095,-509.1961986885872,-18.212309960537823,1758422954.0840352,1758422954.1103203
981,-35.46393808667199,-220.69241909799166,-394.57233260711655,-15.174095871421741,1758422954.0877929,1758422954.1142266
982,-28.765562439046334,-190.36552809132263,-204.4931320042815,-18.53678349024267,1758422954.0915506,1758422954.1181328
983,-21.48610831736005,-317.18474434292875,-360.5276651971508,-14.965297237562481,1758422954.0953083,1758422954.122039
984,-19.372389323456446,-316.4146536515327,-429.1699377244804,-13.878988565440523,1758422954.098912,1758422954.1259453
985,-10.598477279912913,-296.9641751939198,-324.80430604703724,-9.375643074978143,1758422954.1025157,1758422954.1298516
986,-8.177187531342497,-411.05458579736296,-445.227191159036,-3.0176513190963306,1758422954.1061194,1758422954.1337578
987,-32.55395911066444,-398.2636803846108,-442.00082906824537,-20.49051646864973,1758422954.109723,1758422954.137664
988,-51.18717538428609,-373.57517480570823,-349.4948764028959,-42.90863054592046,1758422954.1133268,1758422954.1415703
989,-44.95099389139796,-458.95298151043244,-479.47449544258416,-34.440520600182936,1758422954.1169305,1758422954.1454766
990,-40.68591579704662,-506.3562798607163,-542.690363203641,-23.107844253099756,1758422954.120534,1758422954.1493828
991,-31.10628781482228,-510.13034897774924,-445.8957366547547,-24.928903745749267,1758422954.1241376,1758422954.153289
992,-21.141812585527077,-501.9168474957696,-389.02933807251975,-17.902180796983885,1758422954.1277413,1758422954.1571953
993,-35.04043131362414,-503.8202002077596,-354.8218137982767,-19.783266077953158,1758422954.131345,1758422954.1611016
994,-40.562925143225584,-591.9648598692729,-422.458826177055,-30.749389967764728,1758422954.1349487,1758422954.1650078
995,-22.634839847072726,-653.707548669714,-526.434403038118,-29.08088356271037,1758422954.1385524,1758422954.168914
,TP9,AF7,AF8,TP10,board_ts,unix_ts
0,-6.084651285724351,-166.8838446218269,-109.96756307209577,-8.246399883437087,1758422954.1423328,1758422954.1715436
1,-15.96047750696586,-477.651144747003,-318.2888986832464,-22.121758711450443,1758422954.1461132,1758422954.1754498
2,-15.834503583539192,-516.6116603182302,-369.7243924785539,-17.6504865768216,1758422954.1498938,1758422954.179356
3,-12.497407137006142,-447.7114845576448,-350.93222779867983,-6.234491249793955,1758422954.1536741,1758422954.1832623
4,-6.917090091758283,-498.88421745362507,-345.9328790181203,-8.270416491297851,1758422954.1574545,1758422954.1871686
5,3.0758155319640537,-465.70639540570573,-293.0144862553652,-5.890951648505677,1758422954.1612349,1758422954.1910748
6,1.1372614382189,-513.8729727144473,-401.68510000274455,4.968934712146165,1758422954.1650152,1758422954.194981
7,-2.310519390608249,-560.9535745975372,-488.1267747789843,10.827378971773612,1758422954.1687956,1758422954.1988873
8,1.6024729071164643,-412.02219470026466,-268.983798988369,7.284740931736792,1758422954.172576,1758422954.2027936
9,1.1944212272227333,-357.3626605974605,-97.2042890544526,0.3778247124070617,1758422954.1763566,1758422954.2066998
10,1.38949460090015,-463.242227578914,-275.3349921353074,-3.917182782719408,1758422954.180137,1758422954.210606
11,9.081321133944584,-452.33228800809593,-376.1325021676457,-2.5222210321837792,1758422954.1839173,1758422954.2145123
12,9.2649221675033,-377.8825760747859,-242.67452297961063,2.1181520945873444,1758422954.1887589,1758422954.2184186
13,-8.64592628885157,-429.04609564360726,-307.13425118158557,-2.011710223078012,1758422954.1936007,1758422954.2223248
14,-17.852580829937096,-428.18056392740255,-392.191560163581,-4.795582425850284,1758422954.1984422,1758422954.226231
15,-9.048189308093924,-372.0611298208896,-308.17758722579674,-1.2302991146050317,1758422954.2032838,1758422954.2301373
16,-5.296045652601833,-384.04217519349913,-289.0805120863224,-4.255213600788011,1758422954.2081256,1758422954.2340436
17,-2.142839119224959,-414.38976937014377,-351.62966956213495,-1.3173669569333697,1758422954.2129672,1758422954.2379498
18,1.389167665301784,-424.9473163255607,-412.7262875365559,6.4970101128587885,1758422954.2178087,1758422954.241856
19,-4.668727058056334,-339.3368518983334,-315.53472827997757,4.581401377785369,1758422954.2226505,1758422954.2457623
20,-5.445074247803177,-289.4807860365545,-144.29917341377586,-2.522676085288367,1758422954.227492,1758422954.2496686
21,-3.8048208881939445,-407.7726642951311,-257.8442607326142,-12.342845475252489,1758422954.2323337,1758422954.2535748
22,-8.294211841276365,-441.5003334281646,-392.21547946869396,-14.182568964633674,1758422954.2371755,1758422954.257481
23,-8.329773055971373,-326.84041757084196,-172.14708001476538,-11.197833408072938,1758422954.242017,1758422954.2613873
24,-13.418135529295114,-327.7798973995086,-72.33578695042524,-12.291412883168505,1758422954.2458656,1758422954.2652936
25,-19.09010619228684,-421.0005999630812,-247.26220111639122,-7.414596691916586,1758422954.2497141,1758422954.2691998
26,-11.78319037871097,-409.87380672845757,-243.4266662272712,-7.322117461787002,1758422954.2535627,1758422954.273106
27,-10.722264903755331,-345.2651597201766,-98.00256951255142,-12.206114118764845,1758422954.2574112,1758422954.2770123
28,-9.928203270714448,-368.0102273847442,-65.67383578456065,-7.585727771772554,1758422954.2612598,1758422954.2809186
