,TP9,AF7,AF8,TP10,board_ts,unix_ts
0,-2.9296875,337.890625,-337.890625,-3.41796875,1758422950.2573793,1758422950.2821953
1,-8.7890625,377.9296875,-256.34765625,-4.39453125,1758422950.2611554,1758422950.2861016
2,-12.6953125,350.5859375,-278.3203125,-5.859375,1758422950.2649312,1758422950.2900078
3,-8.30078125,318.359375,-349.12109375,-9.765625,1758422950.2687073,1758422950.293914
4,-13.18359375,312.98828125,-376.46484375,-8.7890625,1758422950.2724833,1758422950.2978203
5,-17.578125,335.9375,-325.1953125,-12.20703125,1758422950.2762594,1758422950.3017266
6,-8.7890625,392.578125,-239.74609375,-17.08984375,1758422950.2800355,1758422950.3056328
7,-10.7421875,310.546875,-318.84765625,-18.06640625,1758422950.2838116,1758422950.309539
8,-12.20703125,255.37109375,-476.07421875,-15.13671875,1758422950.2875876,1758422950.3134453
9,-14.16015625,452.1484375,-193.359375,-14.16015625,1758422950.2913635,1758422950.3173516
10,-23.92578125,403.80859375,-141.11328125,-24.90234375,1758422950.2951396,1758422950.3212578
11,-29.78515625,312.5,-341.30859375,-33.203125,1758422950.2989156,1758422950.325164
12,-27.34375,362.79296875,-308.10546875,-36.1328125,1758422950.3026633,1758422950.3290703
13,-38.0859375,383.30078125,-227.5390625,-23.92578125,1758422950.3064108,1758422950.3329766
14,-41.015625,342.28515625,-283.69140625,-16.6015625,1758422950.3101583,1758422950.3368828
15,-37.59765625,346.19140625,-326.66015625,-18.06640625,1758422950.313906,1758422950.340789
16,-39.0625,368.1640625,-290.52734375,-12.6953125,1758422950.3176537,1758422950.3446953
17,-39.0625,322.265625,-328.125,-16.11328125,1758422950.3214011,1758422950.3486016
18,-48.828125,343.75,-292.96875,-28.3203125,1758422950.3251486,1758422950.3525078
19,-43.9453125,276.3671875,-412.109375,-31.25,1758422950.3288963,1758422950.356414
20,-31.73828125,349.12109375,-322.265625,-19.53125,1758422950.332644,1758422950.3603203
21,-29.78515625,389.6484375,-167.96875,-13.671875,1758422950.3363914,1758422950.3642266
22,-28.3203125,282.71484375,-337.40234375,-13.18359375,1758422950.340139,1758422950.3681328
23,-23.4375,367.1875,-278.3203125,-6.8359375,1758422950.3438866,1758422950.372039
24,-24.4140625,403.80859375,-197.75390625,-13.18359375,1758422950.3476512,1758422950.3759453
25,-25.390625,328.61328125,-268.06640625,-19.53125,1758422950.351416,1758422950.3798516
26,-15.625,258.7890625,-379.39453125,-21.97265625,1758422950.3551807,1758422950.3837578
27,-11.23046875,284.66796875,-344.23828125,-25.390625,1758422950.3589454,1758422950.387664
28,-22.4609375,296.875,-292.96875,-16.6015625,1758422950.36271,1758422950.3915703
29,-15.625,266.11328125,-344.23828125,-18.06640625,1758422950.3664746,1758422950.3954766
30,7.8125,250.9765625,-351.07421875,3.41796875,1758422950.3702395,1758422950.3993828
31,0.48828125,287.59765625,-304.6875,11.23046875,1758422950.3740041,1758422950.403289
32,-29.296875,395.01953125,-124.51171875,-11.23046875,1758422950.3777688,1758422950.4071953
33,-8.7890625,327.1484375,-169.43359375,-0.9765625,1758422950.3815336,1758422950.4111016
34,16.6015625,272.94921875,-317.3828125,15.13671875,1758422950.3852983,1758422950.4150078
35,19.53125,305.17578125,-273.4375,20.99609375,1758422950.389063,1758422950.418914
36,33.203125,329.1015625,-214.35546875,24.90234375,1758422950.3941693,1758422950.4228203
37,39.0625,330.078125,-193.359375,25.87890625,1758422950.399276,1758422950.4267266
38,30.2734375,229.4921875,-322.75390625,29.296875,1758422950.4043825,1758422950.4306328
39,39.0625,295.8984375,-250.48828125,41.015625,1758422950.409489,1758422950.434539
40,54.6875,336.42578125,-99.609375,46.875,1758422950.4145956,1758422950.4384453
41,45.41015625,244.62890625,-228.02734375,40.0390625,1758422950.419702,1758422950.4423516
42,24.90234375,191.89453125,-356.93359375,35.15625,1758422950.4248085,1758422950.4462578
43,21.97265625,267.08984375,-229.98046875,37.59765625,1758422950.4299152,1758422950.450164
44,20.5078125,333.49609375,-35.64453125,22.4609375,1758422950.4350216,1758422950.4540703
45,16.11328125,223.14453125,-222.16796875,8.7890625,1758422950.440128,1758422950.4579766
46,13.18359375,248.53515625,-249.0234375,5.37109375,1758422950.4452348,1758422950.4618828
47,12.20703125,290.52734375,-176.26953125,7.32421875,1758422950.4503412,1758422950.465789
48,23.92578125,274.90234375,-182.6171875,15.625,1758422950.4538867,1758422950.4696953
49,22.94921875,237.3046875,-235.3515625,5.859375,1758422950.4574323,1758422950.4736016
50,11.23046875,204.1015625,-293.45703125,-6.8359375,1758422950.4609778,1758422950.4775078
51,4.39453125,282.2265625,-179.19921875,-1.46484375,1758422950.4645233,1758422950.481414
52,-1.953125,279.296875,-146.484375,-1.46484375,1758422950.4680688,1758422950.4853203
53,2.44140625,181.15234375,-291.015625,-9.765625,1758422950.4716144,1758422950.4892266
54,-0.48828125,221.19140625,-245.60546875,-12.20703125,1758422950.47516,1758422950.4931328
55,-2.9296875,279.296875,-121.09375,-23.4375,1758422950.4787054,1758422950.497039
56,-4.8828125,261.71875,-134.765625,-31.73828125,1758422950.482251,1758422950.5009453
57,7.8125,158.203125,-301.26953125,-10.7421875,1758422950.4857965,1758422950.5048516
58,15.13671875,162.109375,-390.13671875,11.23046875,1758422950.489342,1758422950.5087578
59,10.7421875,364.74609375,-63.4765625,12.20703125,1758422950.4928875,1758422950.512664
60,18.06640625,274.90234375,-64.453125,14.16015625,1758422950.4966912,1758422950.5165703
61,24.4140625,209.9609375,-253.41796875,20.01953125,1758422950.5004952,1758422950.5204766
62,20.5078125,264.6484375,-209.9609375,14.16015625,1758422950.5042992,1758422950.5243828
63,6.8359375,266.11328125,-141.11328125,11.23046875,1758422950.508103,1758422950.528289
64,-0.9765625,200.1953125,-219.7265625,0.9765625,1758422950.5119066,1758422950.5321953
65,-3.41796875,172.36328125,-312.98828125,-4.8828125,1758422950.5157106,1758422950.5361016
66,-12.20703125,233.88671875,-231.4453125,4.39453125,1758422950.5195146,1758422950.5400078
67,-2.9296875,268.06640625,-127.44140625,7.8125,1758422950.5233183,1758422950.543914
68,10.7421875,249.51171875,-134.765625,13.671875,1758422950.527122,1758422950.5478203
69,7.32421875,143.06640625,-374.0234375,23.4375,1758422950.530926,1758422950.5517266
70,0.48828125,246.58203125,-238.76953125,21.97265625,1758422950.53473,1758422950.5556328
71,4.8828125,339.84375,40.52734375,13.18359375,1758422950.5385337,1758422950.559539
72,14.6484375,217.28515625,-169.921875,20.99609375,1758422950.542316,1758422950.5634453
73,27.83203125,250.48828125,-203.61328125,28.3203125,1758422950.5460982,1758422950.5673516
74,39.0625,330.078125,-49.31640625,38.0859375,1758422950.5498805,1758422950.5712578
75,37.59765625,292.96875,-82.51953125,39.55078125,1758422950.5536628,1758422950.575164
76,29.78515625,238.28125,-191.89453125,19.04296875,1758422950.557445,1758422950.5790703
77,12.6953125,227.5390625,-230.46875,11.23046875,1758422950.5612273,1758422950.5829766
78,5.37109375,303.22265625,-92.28515625,2.9296875,1758422950.5650094,1758422950.5868828
79,26.3671875,304.19921875,-87.890625,13.18359375,1758422950.5687916,1758422950.590789
80,47.36328125,204.58984375,-223.6328125,39.55078125,1758422950.572574,1758422950.5946953
81,8.7890625,208.984375,-287.59765625,16.11328125,1758422950.5763562,1758422950.5986016
82,-38.57421875,395.5078125,-21.97265625,-27.83203125,1758422950.5801384,1758422950.6025078
83,-32.71484375,335.44921875,0.48828125,-36.1328125,1758422950.5839207,1758422950.606414
84,-29.296875,255.859375,-219.23828125,-34.1796875,1758422950.587654,1758422950.6103203
85,-39.55078125,320.3125,-129.8828125,-45.41015625,1758422950.5913877,1758422950.6142266
86,-69.82421875,320.3125,-69.82421875,-62.01171875,1758422950.5951211,1758422950.6181328
87,-80.078125,278.3203125,-157.71484375,-66.89453125,1758422950.5988545,1758422950.622039
88,-83.49609375,251.46484375,-221.6796875,-69.82421875,1758422950.6025882,1758422950.6259453
89,-108.3984375,265.625,-203.125,-87.40234375,1758422950.6063216,1758422950.6298516
90,-104.4921875,307.6171875,-105.46875,-89.84375,1758422950.610055,1758422950.6337578
91,-109.375,278.80859375,-77.63671875,-95.703125,1758422950.6137886,1758422950.637664
92,-132.32421875,167.96875,-319.82421875,-101.5625,1758422950.617522,1758422950.6415703
93,-121.58203125,246.58203125,-211.9140625,-78.125,1758422950.6212554,1758422950.6454766
94,-111.328125,313.4765625,3.41796875,-70.80078125,1758422950.624989,1758422950.6493828
95,-101.5625,243.65234375,-99.12109375,-79.1015625,1758422950.6287224,1758422950.653289
96,-91.30859375,263.18359375,-86.9140625,-77.63671875,1758422950.632591,1758422950.6571953
97,-90.33203125,320.3125,43.45703125,-74.21875,1758422950.6364596,1758422950.6611016
98,-83.0078125,260.25390625,15.625,-60.05859375,1758422950.6403282,1758422950.6650078
99,-73.2421875,223.14453125,-49.31640625,-41.50390625,1758422950.6441967,1758422950.668914
100,-51.7578125,212.890625,-33.69140625,-39.55078125,1758422950.6480653,1758422950.6728203
101,-43.9453125,218.75,-15.625,-35.15625,1758422950.6519337,1758422950.6767266
102,-47.36328125,280.2734375,99.609375,-31.25,1758422950.6558022,1758422950.6806328
103,-36.62109375,199.21875,32.2265625,-26.85546875,1758422950.6596708,1758422950.684539
104,-30.76171875,197.265625,-41.015625,-17.578125,1758422950.6635394,1758422950.6884453
105,-23.92578125,345.703125,236.328125,-14.6484375,1758422950.667408,1758422950.6923516
106,-18.06640625,253.41796875,178.7109375,-8.7890625,1758422950.6712766,1758422950.6962578
107,-16.6015625,189.94140625,14.6484375,-10.25390625,1758422950.6751451,1758422950.700164
108,-18.06640625,229.4921875,21.484375,-19.04296875,1758422950.678837,1758422950.7040703
109,-24.90234375,277.34375,117.1875,-14.16015625,1758422950.6825292,1758422950.7079766
110,-18.06640625,228.515625,94.23828125,-5.37109375,1758422950.6862211,1758422950.7118828
111,-15.13671875,187.98828125,-69.82421875,1.953125,1758422950.6899133,1758422950.715789
112,-19.53125,248.53515625,-26.3671875,-3.90625,1758422950.6936052,1758422950.7196953
113,-26.3671875,227.5390625,10.25390625,-10.7421875,1758422950.697297,1758422950.7236016
114,-20.5078125,229.98046875,-0.9765625,-10.7421875,1758422950.7009892,1758422950.7275078
115,-17.08984375,162.59765625,-169.43359375,-6.8359375,1758422950.7046812,1758422950.731414
116,-22.94921875,238.28125,-125.0,-0.9765625,1758422950.7083733,1758422950.7353203
117,-24.90234375,354.4921875,146.97265625,-8.7890625,1758422950.7120652,1758422950.7392266
118,-18.5546875,214.35546875,-84.9609375,-8.30078125,1758422950.7157574,1758422950.7431328
119,-19.04296875,222.16796875,-173.33984375,-8.30078125,1758422950.7194493,1758422950.747039
120,-21.97265625,278.3203125,-83.49609375,-8.7890625,1758422950.723128,1758422950.7509453
121,-19.53125,256.34765625,-141.6015625,-4.8828125,1758422950.7268066,1758422950.7548516
122,-16.11328125,211.42578125,-240.234375,-10.25390625,1758422950.7304854,1758422950.7587578
123,-12.6953125,227.05078125,-207.51953125,-9.765625,1758422950.734164,1758422950.762664
124,-23.4375,265.13671875,-106.4453125,-6.34765625,1758422950.7378428,1758422950.7665703
125,-21.484375,225.5859375,-167.48046875,-16.6015625,1758422950.7415214,1758422950.7704766
126,-10.25390625,182.12890625,-195.80078125,-17.08984375,1758422950.7452002,1758422950.7743828
127,-8.7890625,189.453125,-207.51953125,-5.37109375,1758422950.748879,1758422950.778289
128,-4.8828125,332.03125,45.41015625,-5.859375,1758422950.7525575,1758422950.7821953
129,-2.44140625,256.34765625,107.421875,-4.8828125,1758422950.7562363,1758422950.7861016
130,-0.9765625,111.328125,-143.5546875,0.0,1758422950.7599149,1758422950.7900078
131,14.16015625,158.69140625,-71.2890625,6.8359375,1758422950.7635937,1758422950.793914
132,30.76171875,234.86328125,161.62109375,22.94921875,1758422950.7673628,1758422950.7978203
133,37.109375,173.828125,115.72265625,34.1796875,1758422950.771132,1758422950.8017266
134,45.41015625,160.15625,40.0390625,47.36328125,1758422950.7749012,1758422950.8056328
135,64.94140625,223.14453125,141.6015625,59.5703125,1758422950.7786703,1758422950.809539
136,49.31640625,190.91796875,180.17578125,53.22265625,1758422950.7824395,1758422950.8134453
137,35.64453125,149.4140625,113.28125,33.69140625,1758422950.7862086,1758422950.8173516
138,37.109375,99.12109375,-12.20703125,30.2734375,1758422950.7899776,1758422950.8212578
139,26.3671875,201.66015625,145.99609375,34.66796875,1758422950.7937467,1758422950.825164
140,20.99609375,299.8046875,456.54296875,20.01953125,1758422950.7975159,1758422950.8290703
141,20.01953125,147.4609375,225.09765625,15.13671875,1758422950.801285,1758422950.8329766
142,18.06640625,157.2265625,167.48046875,11.23046875,1758422950.8050542,1758422950.8368828
143,20.99609375,196.77734375,285.15625,13.18359375,1758422950.8088233,1758422950.840789
144,39.0625,175.29296875,280.76171875,29.296875,1758422950.8137686,1758422950.8446953
145,45.41015625,119.140625,212.40234375,20.99609375,1758422950.818714,1758422950.8486016
146,12.6953125,105.46875,178.7109375,10.7421875,1758422950.8236592,1758422950.8525078
147,-8.7890625,167.96875,318.84765625,5.37109375,1758422950.8286045,1758422950.856414
148,-2.44140625,111.328125,316.40625,-0.48828125,1758422950.8335497,1758422950.8603203
149,-9.765625,16.11328125,157.71484375,0.0,1758422950.8384948,1758422950.8642266
150,-5.37109375,82.03125,201.171875,6.34765625,1758422950.84344,1758422950.8681328
151,11.23046875,167.48046875,390.625,2.44140625,1758422950.8483853,1758422950.872039
152,5.859375,120.1171875,368.65234375,-0.48828125,1758422950.8533306,1758422950.8759453
153,-1.46484375,48.828125,204.1015625,6.8359375,1758422950.858276,1758422950.8798516
154,-8.30078125,60.05859375,219.23828125,4.8828125,1758422950.8632212,1758422950.8837578
155,1.46484375,151.85546875,379.39453125,9.27734375,1758422950.8681664,1758422950.887664
156,6.8359375,115.72265625,299.8046875,13.671875,1758422950.8719218,1758422950.8915703
157,7.8125,104.98046875,200.68359375,7.8125,1758422950.8756773,1758422950.8954766
158,18.06640625,150.390625,235.83984375,11.71875,1758422950.8794327,1758422950.8993828
159,11.23046875,155.76171875,311.5234375,6.34765625,1758422950.883188,1758422950.903289
160,-0.48828125,87.890625,196.77734375,-12.6953125,1758422950.8869436,1758422950.9071953
161,-23.4375,54.6875,75.68359375,-14.16015625,1758422950.890699,1758422950.9111016
162,-26.85546875,140.13671875,185.05859375,-15.13671875,1758422950.8944542,1758422950.9150078
163,-20.99609375,175.29296875,294.43359375,-17.08984375,1758422950.8982098,1758422950.918914
164,-22.4609375,107.91015625,191.40625,-18.06640625,1758422950.9019651,1758422950.9228203
165,-20.99609375,56.640625,-47.36328125,-18.06640625,1758422950.9057205,1758422950.9267266
166,-38.0859375,182.12890625,117.1875,-33.203125,1758422950.909476,1758422950.9306328
167,-48.33984375,208.49609375,320.80078125,-53.22265625,1758422950.9132314,1758422950.934539
168,-46.875,94.7265625,95.703125,-50.78125,1758422950.9182827,1758422950.9384453
169,-47.36328125,132.8125,14.6484375,-41.50390625,1758422950.9233344,1758422950.9423516
170,-40.52734375,221.6796875,166.9921875,-30.76171875,1758422950.9283857,1758422950.9462578
171,-11.71875,199.21875,186.03515625,-13.671875,1758422950.933437,1758422950.950164
172,-22.94921875,132.32421875,40.52734375,-22.4609375,1758422950.9384887,1758422950.9540703
173,-54.19921875,117.67578125,-32.71484375,-47.36328125,1758422950.94354,1758422950.9579766
174,-43.45703125,204.58984375,103.02734375,-34.66796875,1758422950.9485915,1758422950.9618828
175,-33.203125,230.46875,187.5,-20.99609375,1758422950.953643,1758422950.965789
176,-8.30078125,140.625,9.765625,-2.44140625,1758422950.9586945,1758422950.9696953
177,4.8828125,168.9453125,-16.6015625,15.625,1758422950.9637458,1758422950.9736016
178,-0.9765625,300.29296875,212.890625,2.9296875,1758422950.9687974,1758422950.9775078
179,4.8828125,229.00390625,110.83984375,-9.27734375,1758422950.9738488,1758422950.981414
180,6.8359375,175.29296875,-67.87109375,0.0,1758422950.9763486,1758422950.9853203
181,19.53125,249.51171875,24.90234375,1.953125,1758422950.9788487,1758422950.9892266
182,9.765625,291.015625,130.859375,-8.30078125,1758422950.9813485,1758422950.9931328
183,2.44140625,244.62890625,46.875,-2.9296875,1758422950.9838483,1758422950.997039
184,3.90625,205.56640625,-70.3125,0.48828125,1758422950.9863484,1758422951.0009453
185,-9.765625,246.58203125,-55.17578125,-2.44140625,1758422950.9888482,1758422951.0048516
186,2.44140625,309.5703125,88.37890625,11.71875,1758422950.991348,1758422951.0087578
187,10.7421875,270.01953125,53.7109375,32.71484375,1758422950.993848,1758422951.012664
188,-4.39453125,261.71875,-81.0546875,25.87890625,1758422950.996348,1758422951.0165703
189,-7.8125,335.44921875,8.30078125,21.97265625,1758422950.9988477,1758422951.0204766
190,0.0,313.4765625,50.78125,20.5078125,1758422951.0013478,1758422951.0243828
191,2.44140625,260.7421875,-62.5,8.7890625,1758422951.0038476,1758422951.028289
192,0.48828125,233.3984375,-257.8125,8.30078125,1758422951.0075696,1758422951.0321953
193,1.953125,370.60546875,-72.75390625,1.46484375,1758422951.0112913,1758422951.0361016
194,0.9765625,360.83984375,47.36328125,2.9296875,1758422951.0150132,1758422951.0400078
195,16.11328125,283.69140625,-168.45703125,16.6015625,1758422951.0187352,1758422951.043914
196,28.3203125,342.7734375,-147.94921875,23.4375,1758422951.022457,1758422951.0478203
197,25.87890625,361.328125,-99.609375,14.6484375,1758422951.0261788,1758422951.0517266
198,24.4140625,386.71875,-85.9375,13.18359375,1758422951.0299008,1758422951.0556328
199,24.4140625,317.3828125,-196.2890625,22.4609375,1758422951.0336225,1758422951.059539
200,28.80859375,326.66015625,-294.43359375,28.80859375,1758422951.0373445,1758422951.0634453
201,23.92578125,476.07421875,-46.875,28.3203125,1758422951.0410664,1758422951.0673516
202,18.06640625,386.23046875,-95.703125,25.87890625,1758422951.0447881,1758422951.0712578
203,24.4140625,330.078125,-295.8984375,36.1328125,1758422951.04851,1758422951.075164
204,34.66796875,371.58203125,-278.3203125,33.69140625,1758422951.0522885,1758422951.0790703
205,20.5078125,391.11328125,-196.77734375,26.85546875,1758422951.056067,1758422951.0829766
206,19.53125,339.84375,-257.32421875,28.3203125,1758422951.0598457,1758422951.0868828
207,25.87890625,308.10546875,-378.41796875,24.4140625,1758422951.0636241,1758422951.090789
208,20.99609375,359.86328125,-313.4765625,20.5078125,1758422951.0674026,1758422951.0946953
209,29.296875,333.0078125,-269.04296875,17.578125,1758422951.0711813,1758422951.0986016
210,27.83203125,328.125,-262.6953125,15.625,1758422951.0749598,1758422951.1025078
211,32.71484375,246.09375,-415.0390625,21.97265625,1758422951.0787382,1758422951.106414
212,28.80859375,321.2890625,-334.9609375,22.4609375,1758422951.0825167,1758422951.1103203
213,18.5546875,425.78125,-13.18359375,16.11328125,1758422951.0862951,1758422951.1142266
214,14.6484375,274.4140625,-220.703125,23.4375,1758422951.0900738,1758422951.1181328
215,10.25390625,268.06640625,-282.2265625,28.3203125,1758422951.0938523,1758422951.122039
216,9.765625,303.7109375,-177.734375,14.16015625,1758422951.0976026,1758422951.1259453
217,10.25390625,271.97265625,-220.703125,11.23046875,1758422951.101353,1758422951.1298516
218,13.18359375,216.796875,-310.05859375,15.625,1758422951.1051033,1758422951.1337578
219,20.5078125,225.5859375,-262.6953125,11.71875,1758422951.1088536,1758422951.137664
220,20.5078125,229.4921875,-197.75390625,6.8359375,1758422951.112604,1758422951.1415703
221,12.6953125,177.24609375,-273.92578125,-0.9765625,1758422951.116354,1758422951.1454766
222,8.7890625,140.13671875,-279.78515625,-4.39453125,1758422951.1201043,1758422951.1493828
223,15.13671875,128.90625,-285.15625,11.71875,1758422951.1238546,1758422951.153289
224,10.7421875,215.8203125,-85.9375,6.8359375,1758422951.127605,1758422951.1571953
225,3.90625,147.94921875,-38.57421875,-9.765625,1758422951.1313553,1758422951.1611016
226,8.30078125,-21.97265625,-307.6171875,-4.39453125,1758422951.1351056,1758422951.1650078
227,5.859375,-22.94921875,-301.7578125,-4.39453125,1758422951.138856,1758422951.168914
228,2.44140625,47.36328125,-75.68359375,-4.39453125,1758422951.142607,1758422951.1728203
229,7.8125,-53.7109375,-168.45703125,1.953125,1758422951.146358,1758422951.1767266
230,11.23046875,-105.95703125,-276.3671875,-1.46484375,1758422951.1501088,1758422951.1806328
231,7.8125,-67.3828125,-183.10546875,0.48828125,1758422951.1538599,1758422951.184539
232,9.27734375,-122.0703125,-158.69140625,11.23046875,1758422951.157611,1758422951.1884453
233,14.16015625,-171.38671875,-214.84375,11.71875,1758422951.1613617,1758422951.1923516
234,13.18359375,-226.5625,-352.05078125,8.7890625,1758422951.1651127,1758422951.1962578
235,18.5546875,-155.2734375,-206.54296875,14.16015625,1758422951.1688638,1758422951.200164
236,26.85546875,-80.078125,43.9453125,18.5546875,1758422951.1726148,1758422951.2040703
237,29.296875,-207.03125,-164.55078125,19.53125,1758422951.1763659,1758422951.2079766
238,28.80859375,-186.5234375,-221.19140625,13.671875,1758422951.1801167,1758422951.2118828
239,30.2734375,-127.9296875,-87.890625,9.27734375,1758422951.1838677,1758422951.215789
240,37.109375,-171.38671875,-61.5234375,11.71875,1758422951.188872,1758422951.2196953
241,30.76171875,-238.28125,-191.40625,7.8125,1758422951.1938765,1758422951.2236016
242,29.296875,-247.55859375,-233.88671875,0.48828125,1758422951.198881,1758422951.2275078
243,28.3203125,-183.59375,-77.1484375,3.41796875,1758422951.2038853,1758422951.231414
244,28.3203125,-228.515625,-113.76953125,11.71875,1758422951.2088897,1758422951.2353203
245,22.4609375,-315.91796875,-251.46484375,14.6484375,1758422951.2138941,1758422951.2392266
246,-2.44140625,-282.71484375,-238.76953125,-8.7890625,1758422951.2188985,1758422951.2431328
247,-13.671875,-178.22265625,-25.390625,-21.484375,1758422951.223903,1758422951.247039
248,-18.06640625,-259.765625,-39.55078125,-29.78515625,1758422951.2289073,1758422951.2509453
249,-14.6484375,-353.515625,-242.67578125,-37.59765625,1758422951.2339118,1758422951.2548516
250,-14.6484375,-320.80078125,-199.70703125,-33.203125,1758422951.2389162,1758422951.2587578
251,-30.2734375,-301.7578125,-116.2109375,-29.296875,1758422951.2439206,1758422951.262664
252,-21.97265625,-351.5625,-193.84765625,-23.4375,1758422951.248813,1758422951.2665703
253,-14.6484375,-427.24609375,-316.89453125,-11.71875,1758422951.2537053,1758422951.2704766
254,-6.34765625,-359.375,-223.14453125,1.46484375,1758422951.2585976,1758422951.2743828
255,-6.34765625,-269.04296875,-15.13671875,-1.953125,1758422951.26349,1758422951.278289
256,7.32421875,-361.81640625,-139.6484375,4.39453125,1758422951.2683823,1758422951.2821953
257,34.66796875,-388.18359375,-262.20703125,24.90234375,1758422951.2732747,1758422951.2861016
258,31.25,-293.45703125,-103.02734375,33.69140625,1758422951.278167,1758422951.2900078
259,40.0390625,-272.94921875,35.64453125,40.0390625,1758422951.2830594,1758422951.293914
260,48.828125,-341.30859375,-20.01953125,45.8984375,1758422951.2879517,1758422951.2978203
261,50.78125,-416.015625,-225.09765625,53.7109375,1758422951.292844,1758422951.3017266
262,52.734375,-304.19921875,-58.59375,53.22265625,1758422951.2977364,1758422951.3056328
263,62.98828125,-253.41796875,161.62109375,56.640625,1758422951.3026288,1758422951.309539
264,79.58984375,-355.95703125,-41.50390625,67.3828125,1758422951.3075597,1758422951.3134453
265,80.078125,-317.3828125,-12.20703125,62.01171875,1758422951.3124905,1758422951.3173516
266,80.078125,-297.8515625,74.21875,59.5703125,1758422951.3174214,1758422951.3212578
267,74.21875,-299.8046875,68.84765625,64.453125,1758422951.3223522,1758422951.325164
268,58.59375,-322.265625,45.8984375,49.8046875,1758422951.3272831,1758422951.3290703
269,56.15234375,-352.5390625,-53.7109375,43.9453125,1758422951.3322139,1758422951.3329766
270,57.12890625,-202.63671875,178.22265625,44.921875,1758422951.3371449,1758422951.3368828
271,58.59375,-213.8671875,261.23046875,44.43359375,1758422951.3420758,1758422951.340789
272,67.3828125,-334.47265625,19.04296875,46.38671875,1758422951.3470066,1758422951.3446953
273,60.05859375,-299.31640625,31.25,40.52734375,1758422951.3519375,1758422951.3486016
274,39.0625,-199.21875,196.2890625,39.55078125,1758422951.3568683,1758422951.3525078
275,42.48046875,-226.07421875,165.0390625,39.55078125,1758422951.3617992,1758422951.356414
276,43.9453125,-309.5703125,36.1328125,32.71484375,1758422951.3631914,1758422951.3603203
277,39.0625,-254.39453125,101.5625,29.296875,1758422951.3645835,1758422951.3642266
278,35.15625,-158.203125,275.390625,25.87890625,1758422951.3659756,1758422951.3681328
279,31.25,-218.26171875,206.54296875,15.625,1758422951.3673677,1758422951.372039
280,24.4140625,-239.2578125,133.7890625,1.46484375,1758422951.3687599,1758422951.3759453
281,10.25390625,-198.2421875,173.33984375,2.9296875,1758422951.370152,1758422951.3798516
282,7.32421875,-177.734375,253.41796875,-1.953125,1758422951.3715441,1758422951.3837578
283,14.6484375,-181.15234375,260.7421875,0.9765625,1758422951.3729362,1758422951.387664
284,16.11328125,-125.9765625,274.4140625,6.34765625,1758422951.3743284,1758422951.3915703
285,13.671875,-92.28515625,342.28515625,-2.9296875,1758422951.3757205,1758422951.3954766
286,-1.953125,-125.48828125,360.83984375,-14.16015625,1758422951.3771126,1758422951.3993828
287,-22.4609375,-182.12890625,282.2265625,-34.1796875,1758422951.3785048,1758422951.403289
288,-37.59765625,-207.51953125,150.390625,-46.875,1758422951.3822794,1758422951.4071953
289,-56.640625,-85.9375,322.75390625,-59.5703125,1758422951.3860538,1758422951.4111016
290,-64.94140625,-100.5859375,379.39453125,-70.3125,1758422951.3898282,1758422951.4150078
291,-63.4765625,-176.7578125,196.77734375,-62.5,1758422951.3936028,1758422951.418914
292,-60.05859375,-143.5546875,173.828125,-52.24609375,1758422951.3973775,1758422951.4228203
293,-44.921875,-63.4765625,284.1796875,-39.55078125,1758422951.401152,1758422951.4267266
294,-44.43359375,-38.0859375,347.65625,-35.64453125,1758422951.4049263,1758422951.4306328
295,-67.87109375,-124.0234375,235.83984375,-62.98828125,1758422951.408701,1758422951.434539
296,-63.96484375,-180.17578125,66.89453125,-72.75390625,1758422951.4124756,1758422951.4384453
297,-39.55078125,39.0625,370.1171875,-42.48046875,1758422951.41625,1758422951.4423516
298,-40.0390625,51.26953125,513.671875,-25.390625,1758422951.4200244,1758422951.4462578
299,-25.390625,-82.51953125,266.6015625,-20.5078125,1758422951.423799,1758422951.450164
300,0.9765625,-6.34765625,324.70703125,-5.37109375,1758422951.427573,1758422951.4540703
301,11.71875,85.9375,507.8125,9.765625,1758422951.4313471,1758422951.4579766
302,15.625,38.57421875,447.265625,4.8828125,1758422951.435121,1758422951.4618828
303,18.06640625,52.24609375,398.92578125,-3.41796875,1758422951.4388952,1758422951.465789
304,22.4609375,71.2890625,398.92578125,5.859375,1758422951.4426692,1758422951.4696953
305,23.92578125,58.10546875,382.32421875,18.5546875,1758422951.446443,1758422951.4736016
306,20.99609375,112.3046875,433.10546875,20.99609375,1758422951.4502172,1758422951.4775078
307,17.08984375,46.38671875,296.875,20.01953125,1758422951.4539912,1758422951.481414
308,23.92578125,127.9296875,369.62890625,25.87890625,1758422951.4577653,1758422951.4853203
309,17.578125,223.14453125,559.5703125,18.5546875,1758422951.4615393,1758422951.4892266
310,10.7421875,101.07421875,331.54296875,16.6015625,1758422951.4653134,1758422951.4931328
311,27.34375,159.66796875,300.29296875,24.90234375,1758422951.4690874,1758422951.497039
312,29.296875,233.88671875,416.015625,13.671875,1758422951.4728181,1758422951.5009453
313,23.92578125,183.10546875,389.6484375,6.34765625,1758422951.476549,1758422951.5048516
314,20.01953125,136.23046875,260.7421875,7.8125,1758422951.4802797,1758422951.5087578
315,22.4609375,167.96875,250.9765625,1.953125,1758422951.4840105,1758422951.512664
316,22.4609375,186.5234375,293.9453125,1.46484375,1758422951.4877412,1758422951.5165703
317,17.08984375,158.69140625,219.7265625,1.953125,1758422951.491472,1758422951.5204766
318,16.11328125,122.0703125,162.59765625,-9.27734375,1758422951.4952028,1758422951.5243828
319,1.46484375,148.92578125,178.22265625,-24.4140625,1758422951.4989336,1758422951.528289
320,-7.8125,262.20703125,376.953125,-35.15625,1758422951.5026643,1758422951.5321953
321,-6.8359375,180.17578125,335.9375,-38.0859375,1758422951.506395,1758422951.5361016
322,-10.7421875,119.62890625,177.734375,-30.76171875,1758422951.5101259,1758422951.5400078
323,-11.23046875,171.875,233.88671875,-28.3203125,1758422951.5138566,1758422951.543914
324,-5.37109375,166.015625,242.67578125,-22.4609375,1758422951.5177221,1758422951.5478203
325,-9.765625,145.99609375,207.51953125,-22.4609375,1758422951.5215876,1758422951.5517266
326,-21.97265625,116.2109375,145.99609375,-25.87890625,1758422951.525453,1758422951.5556328
327,-31.25,172.8515625,215.8203125,-24.90234375,1758422951.5293183,1758422951.559539
328,-24.90234375,185.546875,313.96484375,-29.78515625,1758422951.5331838,1758422951.5634453
329,-19.04296875,123.046875,205.078125,-26.3671875,1758422951.5370493,1758422951.5673516
330,-29.78515625,85.9375,89.84375,-20.01953125,1758422951.5409148,1758422951.5712578
331,-34.66796875,148.92578125,203.61328125,-20.01953125,1758422951.5447803,1758422951.575164
332,-20.99609375,224.12109375,414.0625,-22.94921875,1758422951.5486455,1758422951.5790703
333,-20.99609375,124.0234375,244.140625,-28.80859375,1758422951.552511,1758422951.5829766
334,-26.85546875,148.4375,225.09765625,-29.296875,1758422951.5563765,1758422951.5868828
335,-20.01953125,194.82421875,321.77734375,-25.390625,1758422951.560242,1758422951.590789
336,-14.6484375,161.1328125,299.8046875,-17.578125,1758422951.5674927,1758422951.5946953
337,-18.06640625,126.46484375,210.44921875,-16.11328125,1758422951.5747437,1758422951.5986016
338,-21.97265625,113.76953125,182.12890625,-24.90234375,1758422951.5819945,1758422951.6025078
339,-18.5546875,173.33984375,265.13671875,-29.296875,1758422951.5892453,1758422951.606414
340,-21.484375,178.22265625,278.80859375,-35.64453125,1758422951.596496,1758422951.6103203
341,-25.87890625,102.05078125,181.15234375,-38.0859375,1758422951.603747,1758422951.6142266
342,-20.01953125,77.1484375,45.41015625,-25.390625,1758422951.610998,1758422951.6181328
343,-9.765625,221.19140625,284.66796875,-27.34375,1758422951.6182487,1758422951.622039
344,-3.41796875,234.86328125,443.84765625,-32.71484375,1758422951.6254995,1758422951.6259453
345,-10.25390625,127.9296875,208.49609375,-28.80859375,1758422951.6327505,1758422951.6298516
346,-19.53125,170.8984375,225.09765625,-31.25,1758422951.6400013,1758422951.6337578
347,-19.04296875,207.03125,308.10546875,-31.73828125,1758422951.647252,1758422951.637664
348,-27.83203125,168.9453125,243.65234375,-32.2265625,1758422951.6476128,1758422951.6415703
349,-29.296875,154.296875,173.33984375,-31.73828125,1758422951.6479738,1758422951.6454766
350,-25.87890625,190.91796875,209.9609375,-37.109375,1758422951.6483345,1758422951.6493828
351,-29.78515625,209.47265625,284.66796875,-32.2265625,1758422951.6486955,1758422951.653289
352,-29.78515625,157.2265625,205.56640625,-24.90234375,1758422951.6490562,1758422951.6571953
353,-28.3203125,113.76953125,63.4765625,-29.296875,1758422951.649417,1758422951.6611016
354,-32.71484375,204.1015625,171.875,-39.0625,1758422951.649778,1758422951.6650078
355,-38.57421875,252.9296875,344.23828125,-48.33984375,1758422951.6501386,1758422951.668914
356,-33.69140625,187.98828125,269.53125,-41.50390625,1758422951.6504996,1758422951.6728203
357,-28.80859375,193.84765625,166.50390625,-31.25,1758422951.6508603,1758422951.6767266
358,-11.71875,257.8125,274.90234375,-15.625,1758422951.6512213,1758422951.6806328
359,-20.5078125,208.49609375,266.11328125,-25.390625,1758422951.651582,1758422951.684539
360,-45.41015625,152.34375,124.51171875,-54.19921875,1758422951.656357,1758422951.6884453
361,-36.1328125,179.19921875,148.92578125,-45.41015625,1758422951.661132,1758422951.6923516
362,-30.2734375,234.375,221.6796875,-27.34375,1758422951.6659074,1758422951.6962578
363,-28.3203125,221.19140625,201.171875,-34.66796875,1758422951.6706824,1758422951.700164
364,-30.2734375,159.66796875,126.953125,-36.1328125,1758422951.6754575,1758422951.7040703
365,-36.1328125,64.453125,-117.67578125,-30.2734375,1758422951.6802325,1758422951.7079766
366,-28.3203125,237.3046875,143.06640625,-24.4140625,1758422951.6850076,1758422951.7118828
367,-22.94921875,307.12890625,391.11328125,-29.78515625,1758422951.6897826,1758422951.715789
368,-7.8125,139.16015625,84.9609375,-24.90234375,1758422951.6945577,1758422951.7196953
369,1.953125,195.80078125,133.7890625,-10.7421875,1758422951.699333,1758422951.7236016
370,-11.71875,263.671875,297.36328125,-15.625,1758422951.704108,1758422951.7275078
371,-17.578125,189.94140625,166.015625,-13.18359375,1758422951.708883,1758422951.731414
372,-17.578125,166.9921875,80.56640625,-18.06640625,1758422951.7138853,1758422951.7353203
373,-24.90234375,201.171875,155.2734375,-26.85546875,1758422951.7188878,1758422951.7392266
374,-23.92578125,199.70703125,200.1953125,-19.53125,1758422951.72389,1758422951.7431328
375,-23.92578125,165.52734375,120.60546875,-18.5546875,1758422951.7288923,1758422951.747039
376,-35.64453125,119.62890625,4.39453125,-22.94921875,1758422951.7338948,1758422951.7509453
377,-32.2265625,174.8046875,48.33984375,-22.4609375,1758422951.738897,1758422951.7548516
378,-32.71484375,231.93359375,175.78125,-31.25,1758422951.7438993,1758422951.7587578
379,-34.1796875,196.77734375,174.8046875,-31.73828125,1758422951.7489018,1758422951.762664
380,-14.16015625,95.703125,-83.984375,-4.8828125,1758422951.753904,1758422951.7665703
381,-10.7421875,189.453125,27.34375,-3.90625,1758422951.7589064,1758422951.7704766
382,-25.390625,229.00390625,212.40234375,-16.11328125,1758422951.7639089,1758422951.7743828
383,-28.3203125,137.20703125,29.296875,-18.06640625,1758422951.7689111,1758422951.778289
384,-24.90234375,203.61328125,62.98828125,-21.97265625,1758422951.771409,1758422951.7821953
385,-22.94921875,241.69921875,199.70703125,-16.6015625,1758422951.7739067,1758422951.7861016
386,-16.6015625,174.31640625,177.24609375,-13.18359375,1758422951.7764046,1758422951.7900078
387,-20.5078125,129.39453125,84.47265625,-19.53125,1758422951.7789025,1758422951.793914
388,-31.73828125,105.95703125,71.2890625,-25.390625,1758422951.7814002,1758422951.7978203
389,-34.1796875,119.140625,98.6328125,-28.3203125,1758422951.783898,1758422951.8017266
390,-32.2265625,179.19921875,236.328125,-30.2734375,1758422951.786396,1758422951.8056328
391,-28.3203125,106.4453125,174.31640625,-30.76171875,1758422951.7888937,1758422951.809539
392,-19.53125,100.09765625,149.4140625,-22.94921875,1758422951.7913916,1758422951.8134453
393,-15.13671875,180.6640625,323.73046875,-22.94921875,1758422951.7938895,1758422951.8173516
394,-16.6015625,162.109375,318.84765625,-26.85546875,1758422951.7963872,1758422951.8212578
395,-19.53125,68.359375,157.2265625,-30.76171875,1758422951.798885,1758422951.825164
396,-11.71875,87.890625,130.37109375,-28.3203125,1758422951.8027613,1758422951.8290703
397,1.953125,253.41796875,435.05859375,-25.390625,1758422951.8066375,1758422951.8329766
398,15.625,203.125,451.66015625,-20.5078125,1758422951.8105137,1758422951.8368828
399,24.90234375,98.6328125,224.12109375,-15.625,1758422951.81439,1758422951.840789
400,27.83203125,135.25390625,246.09375,-3.41796875,1758422951.8182662,1758422951.8446953
401,22.94921875,163.57421875,364.2578125,0.9765625,1758422951.8221424,1758422951.8486016
402,12.20703125,174.31640625,385.7421875,-0.48828125,1758422951.8260186,1758422951.8525078
403,11.71875,114.2578125,252.44140625,12.20703125,1758422951.8298948,1758422951.856414
404,19.04296875,162.59765625,330.078125,17.578125,1758422951.833771,1758422951.8603203
405,22.4609375,240.234375,560.546875,18.5546875,1758422951.8376472,1758422951.8642266
406,17.08984375,138.671875,353.02734375,22.4609375,1758422951.8415234,1758422951.8681328
407,18.06640625,169.921875,336.9140625,18.06640625,1758422951.8453996,1758422951.872039
408,23.4375,223.14453125,447.75390625,19.53125,1758422951.8489907,1758422951.8759453
409,24.90234375,201.171875,423.33984375,21.97265625,1758422951.8525817,1758422951.8798516
410,30.76171875,141.6015625,299.8046875,16.6015625,1758422951.8561728,1758422951.8837578
411,27.83203125,152.83203125,251.953125,5.859375,1758422951.8597639,1758422951.887664
412,15.13671875,197.75390625,379.8828125,-5.859375,1758422951.863355,1758422951.8915703
413,6.8359375,144.04296875,302.24609375,-11.71875,1758422951.8669457,1758422951.8954766
414,6.8359375,121.58203125,231.93359375,-8.30078125,1758422951.8705368,1758422951.8993828
415,7.32421875,75.68359375,104.00390625,-1.953125,1758422951.8741279,1758422951.903289
416,11.23046875,217.28515625,321.2890625,7.32421875,1758422951.877719,1758422951.9071953
417,11.23046875,237.79296875,528.3203125,0.48828125,1758422951.88131,1758422951.9111016
418,-2.44140625,113.28125,256.34765625,-26.85546875,1758422951.884901,1758422951.9150078
419,-4.8828125,146.484375,254.8828125,-28.3203125,1758422951.888492,1758422951.918914
420,-9.765625,178.7109375,375.0,-15.13671875,1758422951.893496,1758422951.9228203
421,-20.5078125,129.8828125,309.5703125,-13.18359375,1758422951.8985,1758422951.9267266
422,-6.8359375,103.515625,220.21484375,2.9296875,1758422951.903504,1758422951.9306328
423,-0.9765625,150.87890625,292.48046875,3.90625,1758422951.9085078,1758422951.934539
424,-17.08984375,103.515625,306.15234375,-1.953125,1758422951.9135118,1758422951.9384453
425,-19.53125,75.1953125,246.58203125,-5.37109375,1758422951.9185157,1758422951.9423516
426,-18.5546875,17.578125,108.88671875,-15.625,1758422951.9235198,1758422951.9462578
427,-27.83203125,97.65625,194.82421875,-18.5546875,1758422951.9285238,1758422951.950164
428,-26.85546875,208.984375,544.921875,-22.4609375,1758422951.9335277,1758422951.9540703
429,-16.6015625,59.08203125,332.51953125,-16.6015625,1758422951.9385316,1758422951.9579766
430,-23.4375,71.77734375,207.03125,-18.5546875,1758422951.9435356,1758422951.9618828
431,-24.90234375,126.953125,332.51953125,-30.2734375,1758422951.9485395,1758422951.965789
432,-25.87890625,93.26171875,334.47265625,-30.76171875,1758422951.952323,1758422951.9696953
433,-32.2265625,47.36328125,205.56640625,-30.2734375,1758422951.9561062,1758422951.9736016
434,-32.71484375,49.31640625,166.50390625,-32.71484375,1758422951.9598897,1758422951.9775078
435,-32.71484375,104.98046875,300.29296875,-36.62109375,1758422951.963673,1758422951.981414
436,-29.78515625,72.265625,265.625,-33.203125,1758422951.9674563,1758422951.9853203
437,-21.97265625,10.25390625,124.51171875,-29.296875,1758422951.9712398,1758422951.9892266
438,-20.99609375,77.1484375,203.61328125,-30.2734375,1758422951.9750233,1758422951.9931328
439,-9.27734375,130.37109375,341.30859375,-17.578125,1758422951.9788065,1758422951.997039
440,-2.9296875,94.7265625,244.140625,-13.671875,1758422951.98259,1758422952.0009453
441,-16.6015625,42.96875,143.06640625,-17.578125,1758422951.9863734,1758422952.0048516
442,-11.71875,36.1328125,48.33984375,-6.8359375,1758422951.9901567,1758422952.0087578
443,-1.953125,211.9140625,340.33203125,-12.20703125,1758422951.99394,1758422952.012664
444,-6.8359375,155.2734375,377.9296875,-18.06640625,1758422951.9988616,1758422952.0165703
445,-9.27734375,89.84375,127.9296875,-16.11328125,1758422952.003783,1758422952.0204766
446,-16.11328125,142.08984375,179.6875,-18.5546875,1758422952.0087044,1758422952.0243828
447,-16.6015625,151.3671875,242.1875,-20.5078125,1758422952.0136259,1758422952.028289
448,-15.625,101.5625,124.0234375,-19.53125,1758422952.0185473,1758422952.0321953
449,-30.2734375,89.35546875,1.46484375,-24.4140625,1758422952.023469,1758422952.0361016
450,-25.87890625,173.33984375,124.0234375,-28.3203125,1758422952.0283904,1758422952.0400078
451,-3.90625,184.5703125,214.84375,-21.97265625,1758422952.0333118,1758422952.043914
452,3.41796875,128.90625,119.140625,-15.13671875,1758422952.0382333,1758422952.0478203
453,-3.90625,42.48046875,-137.20703125,-10.25390625,1758422952.0431547,1758422952.0517266
454,-9.27734375,110.3515625,-68.359375,-13.671875,1758422952.0480762,1758422952.0556328
455,-1.46484375,183.59375,212.40234375,-8.30078125,1758422952.0529976,1758422952.059539
456,2.9296875,90.8203125,62.01171875,-3.90625,1758422952.0555758,1758422952.0634453
457,8.30078125,105.95703125,-27.83203125,-8.30078125,1758422952.058154,1758422952.0673516
458,13.671875,168.9453125,96.19140625,0.48828125,1758422952.0607324,1758422952.0712578
459,16.6015625,117.67578125,70.3125,9.27734375,1758422952.0633106,1758422952.075164
460,19.04296875,56.15234375,-90.8203125,8.30078125,1758422952.065889,1758422952.0790703
461,8.30078125,48.828125,-160.15625,5.859375,1758422952.0684671,1758422952.0829766
462,5.37109375,127.9296875,21.484375,8.7890625,1758422952.0710452,1758422952.0868828
463,12.6953125,123.53515625,61.5234375,14.6484375,1758422952.0736234,1758422952.090789
464,10.25390625,29.78515625,-151.85546875,15.13671875,1758422952.0762017,1758422952.0946953
465,10.7421875,48.828125,-140.13671875,7.8125,1758422952.07878,1758422952.0986016
466,13.671875,117.67578125,-2.44140625,14.6484375,1758422952.0813582,1758422952.1025078
467,15.13671875,88.37890625,-58.59375,27.34375,1758422952.0839365,1758422952.106414
468,24.4140625,-27.34375,-289.55078125,28.3203125,1758422952.08893,1758422952.1103203
469,20.5078125,30.2734375,-274.4140625,27.83203125,1758422952.0939236,1758422952.1142266
470,4.39453125,184.5703125,69.82421875,24.4140625,1758422952.098917,1758422952.1181328
471,14.6484375,82.51953125,-39.0625,23.92578125,1758422952.1039107,1758422952.122039
472,19.53125,6.34765625,-281.73828125,19.04296875,1758422952.1089041,1758422952.1259453
473,4.8828125,43.9453125,-245.1171875,5.859375,1758422952.1138978,1758422952.1298516
474,-3.90625,84.47265625,-143.06640625,4.39453125,1758422952.1188912,1758422952.1337578
475,-2.44140625,61.5234375,-158.69140625,4.8828125,1758422952.1238847,1758422952.137664
476,5.859375,-53.22265625,-414.0625,9.27734375,1758422952.1288784,1758422952.1415703
477,10.25390625,24.90234375,-338.8671875,20.99609375,1758422952.1338718,1758422952.1454766
478,3.90625,95.703125,-52.24609375,10.25390625,1758422952.1388655,1758422952.1493828
479,13.18359375,-8.30078125,-231.4453125,7.32421875,1758422952.143859,1758422952.153289
480,19.04296875,-0.48828125,-276.3671875,9.765625,1758422952.1463306,1758422952.1571953
481,0.48828125,23.92578125,-171.875,-3.90625,1758422952.1488025,1758422952.1611016
482,-1.46484375,-13.18359375,-210.9375,-6.8359375,1758422952.1512742,1758422952.1650078
483,3.41796875,-56.15234375,-331.54296875,-6.34765625,1758422952.153746,1758422952.168914
484,-9.27734375,-65.4296875,-334.47265625,-16.6015625,1758422952.1562178,1758422952.1728203
485,-17.578125,-32.71484375,-217.7734375,-20.5078125,1758422952.1586895,1758422952.1767266
486,-18.06640625,-15.13671875,-153.80859375,-22.4609375,1758422952.1611612,1758422952.1806328
487,-22.4609375,-86.42578125,-259.765625,-24.4140625,1758422952.163633,1758422952.184539
488,-20.99609375,-102.05078125,-317.3828125,-14.6484375,1758422952.1661048,1758422952.1884453
489,-15.13671875,-31.73828125,-195.3125,-15.625,1758422952.1685765,1758422952.1923516
490,-20.5078125,-36.62109375,-210.9375,-23.92578125,1758422952.1710484,1758422952.1962578
491,-14.6484375,-135.7421875,-406.25,-13.18359375,1758422952.17352,1758422952.200164
492,-0.9765625,-68.84765625,-383.7890625,-1.953125,1758422952.177295,1758422952.2040703
493,-2.44140625,80.56640625,-36.62109375,-10.25390625,1758422952.1810699,1758422952.2079766
494,-17.578125,-26.85546875,-160.64453125,-14.6484375,1758422952.1848447,1758422952.2118828
495,-25.87890625,-22.4609375,-293.45703125,-26.85546875,1758422952.1886196,1758422952.215789
496,-30.2734375,5.37109375,-232.91015625,-41.015625,1758422952.1923945,1758422952.2196953
497,-31.73828125,-26.85546875,-249.51171875,-39.55078125,1758422952.1961694,1758422952.2236016
498,-36.62109375,17.578125,-194.3359375,-34.1796875,1758422952.1999445,1758422952.2275078
499,-38.0859375,-39.55078125,-348.14453125,-28.3203125,1758422952.2037194,1758422952.231414
500,-41.50390625,56.640625,-250.48828125,-26.3671875,1758422952.2074943,1758422952.2353203
501,-38.0859375,169.43359375,88.37890625,-34.1796875,1758422952.2112691,1758422952.2392266
502,-30.2734375,41.9921875,-100.09765625,-36.62109375,1758422952.215044,1758422952.2431328
503,-40.0390625,57.12890625,-165.52734375,-43.9453125,1758422952.218819,1758422952.247039
504,-40.0390625,105.46875,-71.2890625,-46.38671875,1758422952.2225764,1758422952.2509453
505,-21.97265625,87.40234375,-51.7578125,-23.92578125,1758422952.226334,1758422952.2548516
506,-32.71484375,38.57421875,-185.546875,-31.73828125,1758422952.2300916,1758422952.2587578
507,-54.19921875,62.98828125,-195.80078125,-62.5,1758422952.233849,1758422952.262664
508,-55.17578125,84.9609375,-115.72265625,-73.73046875,1758422952.2376068,1758422952.2665703
509,-57.6171875,63.4765625,-203.125,-72.265625,1758422952.2413642,1758422952.2704766
510,-54.6875,58.10546875,-197.265625,-66.40625,1758422952.2451217,1758422952.2743828
511,-60.546875,79.58984375,-210.9375,-72.75390625,1758422952.2488794,1758422952.278289
512,-82.03125,173.828125,-46.875,-92.7734375,1758422952.252637,1758422952.2821953
513,-83.984375,142.578125,24.90234375,-83.49609375,1758422952.2563944,1758422952.2861016
514,-79.1015625,28.80859375,-203.125,-75.1953125,1758422952.260152,1758422952.2900078
515,-84.47265625,35.15625,-217.7734375,-83.0078125,1758422952.2639096,1758422952.293914
516,-71.77734375,106.4453125,-61.03515625,-72.75390625,1758422952.2676551,1758422952.2978203
517,-55.6640625,61.03515625,-98.14453125,-70.3125,1758422952.271401,1758422952.3017266
518,-58.59375,-35.15625,-287.59765625,-63.4765625,1758422952.2751465,1758422952.3056328
519,-64.94140625,25.390625,-238.76953125,-63.4765625,1758422952.278892,1758422952.309539
520,-74.21875,75.1953125,-65.4296875,-65.91796875,1758422952.2826376,1758422952.3134453
521,-65.91796875,20.99609375,-201.171875,-61.5234375,1758422952.2863832,1758422952.3173516
522,-61.5234375,-1.953125,-346.6796875,-62.98828125,1758422952.290129,1758422952.3212578
523,-67.3828125,63.4765625,-227.5390625,-64.453125,1758422952.2938745,1758422952.325164
524,-70.80078125,154.78515625,-11.71875,-72.75390625,1758422952.29762,1758422952.3290703
525,-67.3828125,85.44921875,-158.203125,-70.3125,1758422952.3013659,1758422952.3329766
526,-61.5234375,71.2890625,-247.55859375,-69.3359375,1758422952.3051114,1758422952.3368828
527,-61.5234375,121.09375,-183.10546875,-61.5234375,1758422952.308857,1758422952.340789
528,-62.01171875,144.04296875,-81.54296875,-50.78125,1758422952.3137047,1758422952.3446953
529,-61.5234375,86.9140625,-188.96484375,-59.08203125,1758422952.3185525,1758422952.3486016
530,-51.7578125,125.9765625,-256.34765625,-47.36328125,1758422952.3234003,1758422952.3525078
531,-34.1796875,222.65625,-51.7578125,-25.87890625,1758422952.328248,1758422952.356414
532,-22.4609375,166.9921875,-62.98828125,-20.01953125,1758422952.3330958,1758422952.3603203
533,-32.2265625,97.65625,-251.953125,-16.11328125,1758422952.3379436,1758422952.3642266
534,-34.66796875,159.1796875,-253.90625,-10.7421875,1758422952.3427916,1758422952.3681328
535,-22.4609375,258.30078125,7.32421875,-20.99609375,1758422952.3476393,1758422952.372039
536,-7.32421875,170.8984375,2.44140625,-15.13671875,1758422952.352487,1758422952.3759453
537,-5.37109375,88.8671875,-212.890625,-12.6953125,1758422952.3573349,1758422952.3798516
538,-10.7421875,113.28125,-173.828125,-8.7890625,1758422952.3621826,1758422952.3837578
539,-27.83203125,105.46875,-78.61328125,-14.16015625,1758422952.3670304,1758422952.387664
540,-38.0859375,18.5546875,-190.91796875,-33.69140625,1758422952.3710628,1758422952.3915703
541,-24.4140625,-61.03515625,-415.0390625,-25.87890625,1758422952.3750954,1758422952.3954766
542,-28.80859375,5.37109375,-308.59375,-10.7421875,1758422952.3791277,1758422952.3993828
543,-21.97265625,60.546875,-94.23828125,-7.8125,1758422952.38316,1758422952.403289
544,-20.99609375,-42.96875,-229.00390625,-16.11328125,1758422952.3871925,1758422952.4071953
545,-36.62109375,-167.48046875,-494.62890625,-23.4375,1758422952.3912249,1758422952.4111016
546,-38.0859375,-100.5859375,-359.375,-26.85546875,1758422952.3952575,1758422952.4150078
547,-40.0390625,-45.8984375,-83.0078125,-33.69140625,1758422952.3992898,1758422952.418914
548,-41.015625,-168.9453125,-243.65234375,-37.59765625,1758422952.4033222,1758422952.4228203
549,-40.52734375,-163.0859375,-307.12890625,-38.57421875,1758422952.4073548,1758422952.4267266
550,-43.9453125,-126.46484375,-201.66015625,-44.921875,1758422952.4113872,1758422952.4306328
551,-40.0390625,-163.0859375,-156.25,-47.8515625,1758422952.4154196,1758422952.434539
552,-44.921875,-208.0078125,-240.72265625,-47.8515625,1758422952.419007,1758422952.4384453
553,-47.36328125,-182.12890625,-211.9140625,-52.734375,1758422952.4225945,1758422952.4423516
554,-50.78125,-122.55859375,-91.796875,-55.6640625,1758422952.4261818,1758422952.4462578
555,-64.94140625,-160.15625,-160.15625,-60.546875,1758422952.4297693,1758422952.450164
556,-68.84765625,-181.15234375,-198.73046875,-60.05859375,1758422952.4333568,1758422952.4540703
557,-71.2890625,-170.8984375,-161.1328125,-62.01171875,1758422952.4369442,1758422952.4579766
558,-83.49609375,-142.578125,-63.96484375,-78.61328125,1758422952.4405317,1758422952.4618828
559,-83.984375,-133.7890625,-21.97265625,-82.51953125,1758422952.4441192,1758422952.465789
560,-79.58984375,-225.09765625,-173.33984375,-82.03125,1758422952.4477067,1758422952.4696953
561,-80.56640625,-273.4375,-368.1640625,-75.68359375,1758422952.451294,1758422952.4736016
562,-83.49609375,-98.6328125,-60.546875,-75.1953125,1758422952.4548814,1758422952.4775078
563,-78.125,-116.69921875,83.0078125,-82.51953125,1758422952.458469,1758422952.481414
564,-77.1484375,-208.0078125,-199.70703125,-77.1484375,1758422952.4622343,1758422952.4853203
565,-75.68359375,-140.13671875,-162.59765625,-76.171875,1758422952.4659996,1758422952.4892266
566,-65.4296875,-108.88671875,-62.01171875,-74.21875,1758422952.4697647,1758422952.4931328
567,-66.40625,-144.04296875,-134.765625,-63.4765625,1758422952.47353,1758422952.497039
568,-64.94140625,-177.734375,-246.09375,-59.08203125,1758422952.4772954,1758422952.5009453
569,-61.5234375,-125.48828125,-198.73046875,-63.4765625,1758422952.4810607,1758422952.5048516
570,-58.10546875,-104.00390625,-125.48828125,-64.94140625,1758422952.484826,1758422952.5087578
571,-53.7109375,-101.5625,-106.93359375,-64.94140625,1758422952.4885914,1758422952.512664
572,-54.6875,-167.96875,-279.296875,-61.03515625,1758422952.4923568,1758422952.5165703
573,-62.01171875,-86.42578125,-226.07421875,-51.7578125,1758422952.496122,1758422952.5204766
574,-56.15234375,36.1328125,111.328125,-47.36328125,1758422952.4998872,1758422952.5243828
575,-51.7578125,-97.65625,-96.19140625,-45.41015625,1758422952.5036526,1758422952.528289
576,-45.41015625,-83.0078125,-190.91796875,-42.96875,1758422952.5074186,1758422952.5321953
577,-52.734375,-25.87890625,-82.51953125,-48.828125,1758422952.5111845,1758422952.5361016
578,-59.5703125,-45.8984375,-114.74609375,-56.15234375,1758422952.5149505,1758422952.5400078
579,-46.38671875,-44.921875,-145.99609375,-48.828125,1758422952.5187166,1758422952.543914
580,-45.8984375,-54.6875,-149.90234375,-42.48046875,1758422952.5224824,1758422952.5478203
581,-41.015625,-28.80859375,-139.6484375,-44.921875,1758422952.5262485,1758422952.5517266
582,-20.01953125,58.59375,-16.6015625,-42.48046875,1758422952.5300145,1758422952.5556328
583,-29.296875,3.90625,-53.7109375,-34.66796875,1758422952.5337803,1758422952.559539
584,-43.9453125,-14.6484375,-247.0703125,-30.76171875,1758422952.5375464,1758422952.5634453
585,-33.69140625,171.875,73.73046875,-27.83203125,1758422952.5413125,1758422952.5673516
586,-27.34375,126.46484375,182.12890625,-22.4609375,1758422952.5450783,1758422952.5712578
587,-26.85546875,38.0859375,-83.0078125,-20.01953125,1758422952.5488443,1758422952.575164
588,-25.87890625,95.21484375,-33.203125,-29.296875,1758422952.5525951,1758422952.5790703
589,-12.20703125,145.5078125,141.6015625,-18.5546875,1758422952.556346,1758422952.5829766
590,6.34765625,94.7265625,94.23828125,0.9765625,1758422952.5600967,1758422952.5868828
591,17.08984375,58.10546875,-20.5078125,-0.9765625,1758422952.5638475,1758422952.590789
592,-1.953125,80.078125,35.15625,-26.3671875,1758422952.5675983,1758422952.5946953
593,-13.671875,63.4765625,99.609375,-37.109375,1758422952.5713491,1758422952.5986016
594,-14.6484375,62.01171875,144.04296875,-33.203125,1758422952.5751,1758422952.6025078
595,-13.671875,-22.94921875,18.06640625,-18.06640625,1758422952.5788507,1758422952.606414
596,-9.27734375,30.2734375,99.12109375,-6.8359375,1758422952.5826015,1758422952.6103203
597,-11.23046875,92.28515625,354.4921875,-11.23046875,1758422952.5863523,1758422952.6142266
598,-4.8828125,-22.94921875,148.4375,-0.48828125,1758422952.5901031,1758422952.6181328
599,-13.671875,11.23046875,127.44140625,-11.23046875,1758422952.593854,1758422952.622039
600,-13.671875,48.33984375,245.1171875,-15.13671875,1758422952.5976112,1758422952.6259453
601,8.30078125,8.30078125,204.1015625,-15.13671875,1758422952.6013682,1758422952.6298516
602,5.859375,-27.83203125,82.51953125,-18.5546875,1758422952.6051254,1758422952.6337578
603,-12.20703125,0.48828125,112.79296875,-7.32421875,1758422952.6088827,1758422952.637664
604,-17.578125,34.66796875,212.40234375,-12.6953125,1758422952.6126397,1758422952.6415703
605,-10.25390625,16.11328125,116.2109375,-10.25390625,1758422952.616397,1758422952.6454766
606,-10.25390625,9.765625,62.5,-5.37109375,1758422952.6201541,1758422952.6493828
607,-20.5078125,39.55078125,73.2421875,-8.7890625,1758422952.6239111,1758422952.653289
608,-11.23046875,146.484375,291.9921875,-10.25390625,1758422952.6276684,1758422952.6571953
609,-0.9765625,74.70703125,278.80859375,-11.23046875,1758422952.6314256,1758422952.6611016
610,-13.18359375,-14.16015625,75.1953125,-11.23046875,1758422952.6351826,1758422952.6650078
611,-27.34375,2.44140625,107.421875,-23.4375,1758422952.6389399,1758422952.668914
612,-25.87890625,20.99609375,185.546875,-32.2265625,1758422952.6428041,1758422952.6728203
613,-17.578125,-30.76171875,98.6328125,-25.87890625,1758422952.6466687,1758422952.6767266
614,-22.94921875,-100.5859375,-32.71484375,-21.97265625,1758422952.650533,1758422952.6806328
615,-25.390625,-51.26953125,73.73046875,-25.87890625,1758422952.6543975,1758422952.684539
616,-33.69140625,-33.203125,181.15234375,-26.85546875,1758422952.6582618,1758422952.6884453
617,-39.0625,-95.703125,42.48046875,-29.296875,1758422952.662126,1758422952.6923516
618,-28.80859375,-129.39453125,-99.609375,-30.76171875,1758422952.6659906,1758422952.6962578
619,-19.04296875,-62.5,8.7890625,-21.484375,1758422952.6698549,1758422952.700164
620,-9.27734375,22.4609375,241.69921875,-17.578125,1758422952.6737194,1758422952.7040703
621,-11.71875,-72.265625,48.828125,-20.01953125,1758422952.6775837,1758422952.7079766
622,-20.5078125,-49.8046875,-15.625,-24.4140625,1758422952.6814482,1758422952.7118828
623,-2.44140625,-18.06640625,80.078125,-22.4609375,1758422952.6853125,1758422952.715789
624,0.9765625,-49.8046875,70.80078125,-20.99609375,1758422952.690027,1758422952.7196953
625,-18.5546875,-93.26171875,-32.71484375,-16.6015625,1758422952.6947415,1758422952.7236016
626,-18.06640625,-96.6796875,-37.59765625,-12.20703125,1758422952.699456,1758422952.7275078
627,-24.90234375,-77.63671875,43.9453125,-12.6953125,1758422952.7041705,1758422952.731414
628,-41.015625,-107.91015625,39.55078125,-18.06640625,1758422952.708885,1758422952.7353203
629,-40.52734375,-145.01953125,15.625,-20.01953125,1758422952.7135997,1758422952.7392266
630,-28.80859375,-201.66015625,-144.53125,-10.7421875,1758422952.7183142,1758422952.7431328
631,-23.92578125,-83.49609375,101.07421875,-8.7890625,1758422952.7230287,1758422952.747039
632,-23.4375,-88.8671875,242.67578125,-16.11328125,1758422952.7277431,1758422952.7509453
633,-14.16015625,-193.359375,17.578125,-15.625,1758422952.7324576,1758422952.7548516
634,-8.7890625,-147.94921875,82.03125,-15.625,1758422952.7371721,1758422952.7587578
635,-9.27734375,-112.3046875,178.22265625,-18.5546875,1758422952.7418866,1758422952.762664
636,-4.8828125,-148.4375,110.3515625,-19.04296875,1758422952.7457213,1758422952.7665703
637,-4.8828125,-163.57421875,24.4140625,-12.6953125,1758422952.7495563,1758422952.7704766
638,-3.41796875,-107.421875,98.6328125,-11.23046875,1758422952.7533913,1758422952.7743828
639,3.41796875,-78.61328125,174.31640625,-5.859375,1758422952.757226,1758422952.778289
640,19.53125,-101.07421875,115.72265625,-1.953125,1758422952.7610607,1758422952.7821953
641,14.16015625,-187.01171875,-86.9140625,8.30078125,1758422952.7648957,1758422952.7861016
642,2.9296875,-105.95703125,8.7890625,8.30078125,1758422952.7687306,1758422952.7900078
643,12.6953125,-5.859375,260.7421875,-11.23046875,1758422952.7725654,1758422952.793914
644,10.7421875,-81.0546875,162.109375,-7.8125,1758422952.7764,1758422952.7978203
645,1.46484375,-129.8828125,-52.24609375,3.41796875,1758422952.780235,1758422952.8017266
646,-7.32421875,-36.1328125,69.82421875,0.9765625,1758422952.78407,1758422952.8056328
647,-4.8828125,-21.484375,205.56640625,-1.46484375,1758422952.7879047,1758422952.809539
648,9.27734375,-93.75,26.3671875,5.37109375,1758422952.7929528,1758422952.8134453
649,1.953125,-69.82421875,-5.37109375,2.9296875,1758422952.7980008,1758422952.8173516
650,-5.37109375,-30.2734375,71.2890625,-2.44140625,1758422952.803049,1758422952.8212578
651,-1.953125,-32.71484375,42.48046875,8.30078125,1758422952.8080971,1758422952.825164
652,-8.30078125,-64.94140625,-54.6875,7.32421875,1758422952.8131452,1758422952.8290703
653,-3.90625,-68.359375,-106.4453125,-2.44140625,1758422952.8181934,1758422952.8329766
654,-6.34765625,20.99609375,39.0625,-10.25390625,1758422952.8232415,1758422952.8368828
655,-4.8828125,44.921875,84.47265625,-18.5546875,1758422952.8282895,1758422952.840789
656,-3.90625,-65.91796875,-117.1875,-26.85546875,1758422952.8333375,1758422952.8446953
657,-23.4375,-47.8515625,-195.3125,-29.296875,1758422952.8383856,1758422952.8486016
658,-21.97265625,131.34765625,115.234375,-27.83203125,1758422952.8434339,1758422952.8525078
659,-11.23046875,48.33984375,122.55859375,-26.85546875,1758422952.848482,1758422952.856414
660,-21.484375,-34.1796875,-100.09765625,-30.2734375,1758422952.8522658,1758422952.8603203
661,-21.97265625,-4.39453125,-68.359375,-36.62109375,1758422952.85605,1758422952.8642266
662,-19.53125,11.23046875,4.39453125,-41.9921875,1758422952.859834,1758422952.8681328
663,-36.1328125,-16.11328125,-5.37109375,-40.0390625,1758422952.863618,1758422952.872039
664,-45.41015625,-77.63671875,-97.65625,-32.71484375,1758422952.8674018,1758422952.8759453
665,-35.64453125,-64.453125,-124.0234375,-31.25,1758422952.8711858,1758422952.8798516
666,-27.83203125,-12.6953125,19.53125,-33.203125,1758422952.87497,1758422952.8837578
667,-22.94921875,-59.5703125,20.01953125,-33.69140625,1758422952.878754,1758422952.887664
668,-20.01953125,-92.7734375,-143.06640625,-39.55078125,1758422952.8825378,1758422952.8915703
669,-31.25,-14.6484375,-24.90234375,-36.62109375,1758422952.886322,1758422952.8954766
670,-35.64453125,-69.3359375,-8.30078125,-33.203125,1758422952.890106,1758422952.8993828
671,-27.83203125,-97.16796875,-96.6796875,-33.203125,1758422952.89389,1758422952.903289
672,-25.87890625,-120.60546875,-215.33203125,-17.578125,1758422952.8963802,1758422952.9071953
673,-25.87890625,-53.22265625,-85.44921875,-11.23046875,1758422952.8988705,1758422952.9111016
674,-18.06640625,13.671875,162.109375,-20.5078125,1758422952.9013608,1758422952.9150078
675,-19.04296875,-102.05078125,-67.87109375,-25.390625,1758422952.903851,1758422952.918914
676,-28.3203125,-116.2109375,-139.6484375,-34.1796875,1758422952.9063413,1758422952.9228203
677,-17.08984375,-99.12109375,-116.2109375,-32.71484375,1758422952.9088316,1758422952.9267266
678,-27.83203125,-57.6171875,-58.59375,-34.66796875,1758422952.9113216,1758422952.9306328
679,-31.73828125,-114.74609375,-137.6953125,-41.9921875,1758422952.913812,1758422952.934539
680,-22.94921875,-130.859375,-202.63671875,-33.203125,1758422952.9163022,1758422952.9384453
681,-15.625,-45.8984375,-49.8046875,-29.296875,1758422952.9187925,1758422952.9423516
682,-9.765625,-65.4296875,-72.265625,-34.1796875,1758422952.9212828,1758422952.9462578
683,-20.5078125,-169.921875,-290.0390625,-23.4375,1758422952.923773,1758422952.950164
684,-17.08984375,-119.140625,-292.96875,-14.6484375,1758422952.92765,1758422952.9540703
685,-12.6953125,-11.71875,-73.2421875,-14.16015625,1758422952.9315267,1758422952.9579766
686,-16.11328125,-94.23828125,-184.08203125,-16.11328125,1758422952.9354033,1758422952.9618828
687,-14.16015625,-128.90625,-321.2890625,-13.18359375,1758422952.9392803,1758422952.965789
688,-7.32421875,-104.00390625,-257.8125,-9.27734375,1758422952.9431572,1758422952.9696953
689,-0.9765625,-81.0546875,-190.4296875,-10.7421875,1758422952.947034,1758422952.9736016
690,1.953125,-75.1953125,-204.58984375,-3.90625,1758422952.9509106,1758422952.9775078
691,3.90625,-167.96875,-370.60546875,-3.90625,1758422952.9547875,1758422952.981414
692,9.765625,-119.62890625,-294.921875,-1.953125,1758422952.9586644,1758422952.9853203
693,11.71875,-41.50390625,-34.1796875,3.41796875,1758422952.962541,1758422952.9892266
694,8.30078125,-153.80859375,-262.20703125,6.34765625,1758422952.9664178,1758422952.9931328
695,11.23046875,-134.765625,-308.59375,8.7890625,1758422952.9702947,1758422952.997039
696,12.6953125,-98.14453125,-178.7109375,9.765625,1758422952.9738925,1758422953.0009453
697,23.4375,-145.01953125,-224.12109375,7.32421875,1758422952.9774902,1758422953.0048516
698,28.3203125,-188.96484375,-333.984375,9.27734375,1758422952.981088,1758422953.0087578
699,18.5546875,-212.890625,-362.3046875,14.16015625,1758422952.9846857,1758422953.012664
700,16.6015625,-195.3125,-284.1796875,25.390625,1758422952.9882834,1758422953.0165703
701,26.85546875,-196.2890625,-281.25,15.625,1758422952.9918811,1758422953.0204766
702,23.92578125,-223.14453125,-297.8515625,10.7421875,1758422952.9954789,1758422953.0243828
703,21.97265625,-290.52734375,-471.6796875,29.296875,1758422952.9990766,1758422953.028289
704,19.04296875,-178.22265625,-243.65234375,30.76171875,1758422953.0026743,1758422953.0321953
705,11.71875,-178.22265625,-37.109375,14.16015625,1758422953.006272,1758422953.0361016
706,23.4375,-293.45703125,-318.359375,26.85546875,1758422953.0098698,1758422953.0400078
707,33.203125,-241.2109375,-262.6953125,46.38671875,1758422953.0134676,1758422953.043914
708,42.48046875,-208.984375,-132.8125,48.828125,1758422953.0172443,1758422953.0478203
709,42.96875,-255.37109375,-177.24609375,39.0625,1758422953.021021,1758422953.0517266
710,43.9453125,-280.2734375,-247.55859375,36.1328125,1758422953.0247977,1758422953.0556328
711,52.734375,-233.3984375,-184.08203125,44.921875,1758422953.0285745,1758422953.059539
712,55.17578125,-269.53125,-155.2734375,37.59765625,1758422953.0323513,1758422953.0634453
713,63.4765625,-308.59375,-223.6328125,27.34375,1758422953.036128,1758422953.0673516
714,69.3359375,-373.046875,-341.796875,41.50390625,1758422953.0399046,1758422953.0712578
715,55.6640625,-306.640625,-254.8828125,46.875,1758422953.0436814,1758422953.075164
716,33.203125,-213.37890625,53.22265625,35.15625,1758422953.0474582,1758422953.0790703
717,21.97265625,-369.62890625,-129.39453125,32.71484375,1758422953.0512347,1758422953.0829766
718,20.5078125,-361.328125,-202.1484375,26.85546875,1758422953.0550115,1758422953.0868828
719,25.87890625,-333.984375,-85.9375,22.4609375,1758422953.0587883,1758422953.090789
720,17.08984375,-383.7890625,-116.2109375,13.671875,1758422953.063684,1758422953.0946953
721,7.8125,-424.8046875,-216.796875,5.859375,1758422953.0685797,1758422953.0986016
722,15.625,-413.0859375,-185.546875,11.71875,1758422953.0734754,1758422953.1025078
723,17.08984375,-354.4921875,-62.01171875,20.99609375,1758422953.0783708,1758422953.106414
724,12.20703125,-380.859375,-117.1875,14.16015625,1758422953.0832665,1758422953.1103203
725,4.8828125,-429.19921875,-230.95703125,11.23046875,1758422953.0881622,1758422953.1142266
726,-1.46484375,-357.421875,-219.23828125,7.32421875,1758422953.0930579,1758422953.1181328
727,8.7890625,-238.28125,24.4140625,1.46484375,1758422953.0979536,1758422953.122039
728,4.8828125,-313.96484375,-21.97265625,-1.46484375,1758422953.102849,1758422953.1259453
729,-5.37109375,-390.13671875,-247.55859375,-0.9765625,1758422953.1077447,1758422953.1298516
730,-5.859375,-316.40625,-118.1640625,3.90625,1758422953.1126404,1758422953.1337578
731,-5.859375,-222.65625,55.17578125,-2.9296875,1758422953.117536,1758422953.137664
732,0.48828125,-260.7421875,-48.828125,-11.71875,1758422953.121263,1758422953.1415703
733,-5.859375,-269.53125,-131.8359375,-18.5546875,1758422953.12499,1758422953.1454766
734,-7.32421875,-208.984375,-48.828125,-16.6015625,1758422953.1287167,1758422953.1493828
735,-3.90625,-176.26953125,42.96875,-16.6015625,1758422953.1324437,1758422953.153289
736,-13.671875,-220.21484375,-22.94921875,-26.85546875,1758422953.1361706,1758422953.1571953
737,-29.296875,-272.4609375,-212.40234375,-31.25,1758422953.1398973,1758422953.1611016
738,-31.73828125,-144.53125,-65.91796875,-24.90234375,1758422953.1436243,1758422953.1650078
739,-27.34375,-90.8203125,135.25390625,-24.4140625,1758422953.1473513,1758422953.168914
740,-26.85546875,-177.24609375,-38.0859375,-28.80859375,1758422953.1510782,1758422953.1728203
741,-25.390625,-138.671875,-101.5625,-22.94921875,1758422953.1548052,1758422953.1767266
742,-27.34375,-73.2421875,50.29296875,-23.4375,1758422953.158532,1758422953.1806328
743,-26.85546875,-86.9140625,69.82421875,-23.92578125,1758422953.1622589,1758422953.184539
744,-22.4609375,-105.95703125,-10.25390625,-27.34375,1758422953.1661367,1758422953.1884453
745,-37.109375,-110.83984375,-44.43359375,-41.015625,1758422953.1700149,1758422953.1923516
746,-56.15234375,-71.77734375,38.57421875,-48.828125,1758422953.1738927,1758422953.1962578
747,-49.31640625,-100.5859375,25.87890625,-54.6875,1758422953.1777706,1758422953.200164
748,-40.52734375,-156.25,-72.75390625,-53.7109375,1758422953.1816485,1758422953.2040703
749,-51.7578125,-215.33203125,-267.08984375,-55.17578125,1758422953.1855264,1758422953.2079766
750,-52.24609375,-69.82421875,-39.55078125,-52.734375,1758422953.1894045,1758422953.2118828
751,-35.64453125,-50.29296875,134.765625,-52.734375,1758422953.1932824,1758422953.215789
752,-42.48046875,-168.45703125,-121.09375,-50.29296875,1758422953.1971602,1758422953.2196953
753,-49.8046875,-135.7421875,-107.421875,-45.41015625,1758422953.2010384,1758422953.2236016
754,-35.15625,-70.80078125,6.8359375,-40.0390625,1758422953.2049162,1758422953.2275078
755,-33.69140625,-89.35546875,-58.59375,-37.59765625,1758422953.208794,1758422953.231414
756,-34.66796875,-113.76953125,-136.23046875,-35.15625,1758422953.2125955,1758422953.2353203
757,-31.25,-88.8671875,-156.73828125,-30.2734375,1758422953.2163968,1758422953.2392266
758,-30.76171875,-32.71484375,-67.3828125,-31.73828125,1758422953.2201982,1758422953.2431328
759,-17.08984375,-31.25,-17.08984375,-21.97265625,1758422953.2239995,1758422953.247039
760,-10.25390625,-123.53515625,-235.83984375,-20.01953125,1758422953.2278008,1758422953.2509453
761,-12.20703125,-71.77734375,-232.91015625,-28.3203125,1758422953.2316022,1758422953.2548516
762,-5.859375,23.4375,-21.484375,-19.04296875,1758422953.2354033,1758422953.2587578
763,1.46484375,-11.23046875,-44.43359375,-12.20703125,1758422953.2392046,1758422953.262664
764,-10.7421875,-103.02734375,-308.10546875,-19.53125,1758422953.243006,1758422953.2665703
765,-33.203125,-27.83203125,-233.3984375,-21.484375,1758422953.2468073,1758422953.2704766
766,-31.73828125,43.9453125,-4.8828125,-23.92578125,1758422953.2506087,1758422953.2743828
767,-26.3671875,-51.7578125,-182.6171875,-20.99609375,1758422953.25441,1758422953.278289
768,-18.5546875,-27.34375,-215.8203125,-20.5078125,1758422953.2580833,1758422953.2821953
769,-15.13671875,20.5078125,-135.25390625,-13.671875,1758422953.2617564,1758422953.2861016
770,-12.6953125,-10.25390625,-166.015625,-6.8359375,1758422953.2654297,1758422953.2900078
771,-10.25390625,-54.6875,-255.859375,-14.6484375,1758422953.269103,1758422953.293914
772,-25.390625,-51.7578125,-263.18359375,-16.11328125,1758422953.2727764,1758422953.2978203
773,-25.87890625,-35.15625,-223.14453125,-16.6015625,1758422953.2764497,1758422953.3017266
774,-14.16015625,11.23046875,-146.484375,-12.6953125,1758422953.2801228,1758422953.3056328
775,-13.18359375,-45.41015625,-187.01171875,-12.20703125,1758422953.283796,1758422953.309539
776,-16.6015625,-94.23828125,-371.58203125,-17.578125,1758422953.2874694,1758422953.3134453
777,-14.16015625,73.2421875,-91.796875,-16.11328125,1758422953.2911425,1758422953.3173516
778,-13.18359375,24.4140625,-3.41796875,-12.20703125,1758422953.2948158,1758422953.3212578
779,-6.34765625,-52.734375,-208.0078125,-11.71875,1758422953.298489,1758422953.325164
780,-2.44140625,-23.4375,-193.84765625,-9.765625,1758422953.3022652,1758422953.3290703
781,-2.44140625,7.32421875,-107.91015625,-7.32421875,1758422953.3060412,1758422953.3329766
782,0.48828125,-12.20703125,-135.25390625,-5.37109375,1758422953.3098173,1758422953.3368828
783,6.34765625,-6.8359375,-192.3828125,5.37109375,1758422953.3135934,1758422953.340789
784,19.04296875,24.4140625,-169.921875,5.37109375,1758422953.3173695,1758422953.3446953
785,20.99609375,15.625,-166.50390625,8.30078125,1758422953.3211455,1758422953.3486016
786,25.390625,58.10546875,-122.55859375,19.53125,1758422953.3249216,1758422953.3525078
787,20.99609375,-19.04296875,-251.46484375,15.625,1758422953.3286977,1758422953.356414
788,14.6484375,73.73046875,-175.29296875,23.4375,1758422953.3324738,1758422953.3603203
789,18.5546875,202.1484375,131.34765625,30.76171875,1758422953.3362498,1758422953.3642266
790,28.3203125,55.6640625,-78.61328125,29.296875,1758422953.340026,1758422953.3681328
791,37.59765625,77.1484375,-146.97265625,23.92578125,1758422953.343802,1758422953.372039
792,36.62109375,116.2109375,-45.8984375,28.80859375,1758422953.3475642,1758422953.3759453
793,38.0859375,79.1015625,-92.28515625,30.76171875,1758422953.3513265,1758422953.3798516
794,32.71484375,52.734375,-189.453125,30.2734375,1758422953.3550887,1758422953.3837578
795,31.73828125,81.0546875,-153.80859375,34.1796875,1758422953.3588507,1758422953.387664
796,34.1796875,86.9140625,-102.5390625,36.1328125,1758422953.362613,1758422953.3915703
797,32.71484375,51.7578125,-207.51953125,34.66796875,1758422953.3663752,1758422953.3954766
798,31.25,45.8984375,-244.140625,33.69140625,1758422953.3701375,1758422953.3993828
799,29.78515625,77.63671875,-229.00390625,36.1328125,1758422953.3738997,1758422953.403289
800,46.38671875,144.53125,-112.79296875,40.0390625,1758422953.3776617,1758422953.4071953
801,50.78125,128.90625,-79.58984375,35.64453125,1758422953.381424,1758422953.4111016
802,28.3203125,52.734375,-223.6328125,27.34375,1758422953.3851862,1758422953.4150078
803,16.6015625,51.26953125,-248.53515625,24.4140625,1758422953.3889484,1758422953.418914
804,20.5078125,155.76171875,-68.84765625,24.4140625,1758422953.393958,1758422953.4228203
805,29.296875,113.76953125,-146.97265625,23.92578125,1758422953.3989677,1758422953.4267266
806,28.80859375,99.609375,-238.28125,24.90234375,1758422953.4039774,1758422953.4306328
807,21.97265625,162.59765625,-154.296875,26.3671875,1758422953.408987,1758422953.434539
808,22.94921875,143.5546875,-137.20703125,20.99609375,1758422953.4139967,1758422953.4384453
809,24.4140625,122.55859375,-209.9609375,11.23046875,1758422953.4190063,1758422953.4423516
810,17.08984375,86.42578125,-338.37890625,5.859375,1758422953.4240162,1758422953.4462578
811,11.71875,150.87890625,-251.46484375,-0.48828125,1758422953.429026,1758422953.450164
812,25.87890625,246.58203125,-8.7890625,-4.39453125,1758422953.4340355,1758422953.4540703
813,31.73828125,153.80859375,-183.59375,5.37109375,1758422953.4390452,1758422953.4579766
814,22.94921875,162.59765625,-237.3046875,12.6953125,1758422953.4440548,1758422953.4618828
815,29.296875,196.2890625,-190.91796875,14.6484375,1758422953.4490645,1758422953.465789
816,29.296875,217.28515625,-124.51171875,16.11328125,1758422953.4527094,1758422953.4696953
817,22.4609375,142.08984375,-193.84765625,5.859375,1758422953.4563544,1758422953.4736016
818,8.7890625,140.625,-286.1328125,-5.37109375,1758422953.4599996,1758422953.4775078
819,1.46484375,217.7734375,-115.72265625,-3.90625,1758422953.4636445,1758422953.481414
820,5.37109375,132.32421875,-137.20703125,3.41796875,1758422953.4672894,1758422953.4853203
821,5.859375,56.640625,-290.0390625,9.765625,1758422953.4709344,1758422953.4892266
822,-2.9296875,88.37890625,-224.609375,4.8828125,1758422953.4745793,1758422953.4931328
823,1.46484375,125.0,-97.65625,6.34765625,1758422953.4782243,1758422953.497039
824,11.71875,109.86328125,-125.9765625,6.34765625,1758422953.4818692,1758422953.5009453
825,6.34765625,14.16015625,-288.57421875,4.8828125,1758422953.4855144,1758422953.5048516
826,5.37109375,39.55078125,-325.68359375,11.71875,1758422953.4891593,1758422953.5087578
827,13.671875,167.48046875,-60.546875,14.16015625,1758422953.4928043,1758422953.512664
828,15.13671875,79.1015625,-99.12109375,19.53125,1758422953.496482,1758422953.5165703
829,10.7421875,-3.90625,-324.70703125,18.06640625,1758422953.5001595,1758422953.5204766
830,14.6484375,41.015625,-264.6484375,18.5546875,1758422953.503837,1758422953.5243828
831,21.97265625,91.796875,-111.81640625,20.01953125,1758422953.5075145,1758422953.528289
832,19.04296875,46.38671875,-190.4296875,12.6953125,1758422953.511192,1758422953.5321953
833,17.578125,-48.828125,-392.578125,14.6484375,1758422953.5148697,1758422953.5361016
834,18.06640625,51.7578125,-267.08984375,16.11328125,1758422953.5185473,1758422953.5400078
835,10.25390625,153.80859375,6.34765625,12.20703125,1758422953.522225,1758422953.543914
836,7.8125,41.50390625,-154.296875,5.37109375,1758422953.5259023,1758422953.5478203
837,2.9296875,37.109375,-277.83203125,7.32421875,1758422953.5295799,1758422953.5517266
838,-3.41796875,123.046875,-127.9296875,7.32421875,1758422953.5332575,1758422953.5556328
839,0.9765625,95.703125,-42.96875,0.9765625,1758422953.536935,1758422953.559539
840,-1.46484375,17.578125,-173.828125,-1.953125,1758422953.5408235,1758422953.5634453
841,-5.859375,56.640625,-186.03515625,-2.44140625,1758422953.5447118,1758422953.5673516
842,-7.32421875,114.74609375,-37.109375,-6.34765625,1758422953.5486002,1758422953.5712578
843,-12.20703125,41.015625,-74.70703125,-8.30078125,1758422953.5524886,1758422953.575164
844,-4.39453125,-16.6015625,-165.52734375,0.0,1758422953.556377,1758422953.5790703
845,-8.30078125,-35.15625,-252.9296875,16.6015625,1758422953.5602653,1758422953.5829766
846,-18.5546875,80.56640625,-13.671875,12.6953125,1758422953.5641537,1758422953.5868828
847,-15.625,65.91796875,162.109375,0.48828125,1758422953.568042,1758422953.590789
848,-14.16015625,-69.3359375,-86.42578125,-3.41796875,1758422953.5719304,1758422953.5946953
849,-12.20703125,-55.17578125,-79.1015625,-20.99609375,1758422953.5758188,1758422953.5986016
850,-4.39453125,-11.71875,86.9140625,-27.34375,1758422953.5797071,1758422953.6025078
851,-0.9765625,-56.15234375,73.73046875,-24.90234375,1758422953.5835955,1758422953.606414
852,7.8125,-112.3046875,-39.0625,-23.92578125,1758422953.587362,1758422953.6103203
853,21.97265625,-79.1015625,29.78515625,-16.11328125,1758422953.5911286,1758422953.6142266
854,17.08984375,-60.546875,144.53125,-17.08984375,1758422953.5948954,1758422953.6181328
855,19.04296875,-100.09765625,111.81640625,-13.18359375,1758422953.598662,1758422953.622039
856,7.8125,-125.9765625,58.59375,-2.9296875,1758422953.6024284,1758422953.6259453
857,-12.20703125,-97.65625,64.453125,-2.9296875,1758422953.606195,1758422953.6298516
858,-13.671875,-74.70703125,134.765625,-7.8125,1758422953.6099615,1758422953.6337578
859,-7.8125,-62.5,211.9140625,-9.765625,1758422953.613728,1758422953.637664
860,-0.9765625,-132.32421875,57.6171875,-10.7421875,1758422953.6174946,1758422953.6415703
861,-5.37109375,-53.22265625,114.2578125,-15.625,1758422953.6212614,1758422953.6454766
862,-3.41796875,75.1953125,437.98828125,-12.20703125,1758422953.625028,1758422953.6493828
863,11.71875,-34.1796875,292.96875,-2.9296875,1758422953.6287944,1758422953.653289
864,-5.37109375,5.37109375,241.2109375,-15.625,1758422953.6325486,1758422953.6571953
865,-6.34765625,75.1953125,371.58203125,-23.4375,1758422953.6363027,1758422953.6611016
866,12.6953125,40.0390625,373.046875,-2.9296875,1758422953.6400568,1758422953.6650078
867,-11.23046875,20.5078125,297.8515625,-6.8359375,1758422953.643811,1758422953.668914
868,-28.3203125,22.4609375,294.43359375,-29.296875,1758422953.6475651,1758422953.6728203
869,-17.578125,76.66015625,374.51171875,-20.01953125,1758422953.6513193,1758422953.6767266
870,-19.04296875,152.34375,497.55859375,-12.20703125,1758422953.6550734,1758422953.6806328
871,-18.06640625,102.05078125,458.0078125,-20.99609375,1758422953.6588275,1758422953.684539
872,-16.6015625,100.09765625,339.84375,-19.04296875,1758422953.6625817,1758422953.6884453
873,-21.484375,262.6953125,593.26171875,-13.18359375,1758422953.6663358,1758422953.6923516
874,-4.39453125,253.90625,689.453125,-18.5546875,1758422953.67009,1758422953.6962578
875,5.37109375,146.97265625,464.84375,-16.11328125,1758422953.673844,1758422953.700164
876,-4.39453125,193.359375,506.34765625,-10.25390625,1758422953.6776521,1758422953.7040703
877,3.41796875,291.50390625,722.16796875,-13.671875,1758422953.6814601,1758422953.7079766
878,3.90625,237.79296875,653.80859375,-14.6484375,1758422953.6852682,1758422953.7118828
879,1.46484375,230.95703125,586.42578125,-9.765625,1758422953.6890762,1758422953.715789
880,9.27734375,260.7421875,645.01953125,-6.8359375,1758422953.6928842,1758422953.7196953
881,6.8359375,235.83984375,646.97265625,-2.9296875,1758422953.6966922,1758422953.7236016
882,-2.44140625,268.06640625,663.0859375,-8.7890625,1758422953.7005002,1758422953.7275078
883,-0.48828125,200.1953125,532.71484375,-10.25390625,1758422953.7043083,1758422953.731414
884,0.48828125,253.41796875,609.375,-12.20703125,1758422953.7081163,1758422953.7353203
885,0.0,357.421875,847.16796875,-14.16015625,1758422953.7119243,1758422953.7392266
886,-5.37109375,244.62890625,629.8828125,-15.625,1758422953.7157323,1758422953.7431328
887,-9.27734375,269.53125,546.38671875,-17.578125,1758422953.7195404,1758422953.747039
888,-18.5546875,339.84375,663.57421875,-13.18359375,1758422953.7232325,1758422953.7509453
889,-20.99609375,303.22265625,644.53125,-18.06640625,1758422953.7269247,1758422953.7548516
890,-25.390625,256.34765625,525.87890625,-29.296875,1758422953.7306168,1758422953.7587578
891,-32.71484375,285.64453125,502.44140625,-33.203125,1758422953.734309,1758422953.762664
892,-39.55078125,326.171875,574.21875,-30.2734375,1758422953.738001,1758422953.7665703
893,-38.57421875,283.203125,500.9765625,-28.3203125,1758422953.7416935,1758422953.7704766
894,-25.87890625,274.4140625,442.87109375,-29.78515625,1758422953.7453856,1758422953.7743828
895,-16.11328125,309.08203125,432.12890625,-22.4609375,1758422953.7490778,1758422953.778289
896,-18.5546875,399.90234375,582.03125,-14.6484375,1758422953.75277,1758422953.7821953
897,-29.296875,345.21484375,584.47265625,-22.4609375,1758422953.756462,1758422953.7861016
898,-18.5546875,232.421875,364.2578125,-19.53125,1758422953.7601542,1758422953.7900078
899,-9.765625,263.671875,382.32421875,-12.6953125,1758422953.7638464,1758422953.793914
900,-15.625,340.33203125,513.671875,-20.5078125,1758422953.767706,1758422953.7978203
901,-13.671875,282.71484375,428.22265625,-5.859375,1758422953.7715654,1758422953.8017266
902,-8.30078125,222.16796875,302.24609375,8.7890625,1758422953.775425,1758422953.8056328
903,6.34765625,307.12890625,412.109375,11.23046875,1758422953.7792845,1758422953.809539
904,25.390625,337.890625,541.50390625,10.7421875,1758422953.783144,1758422953.8134453
905,34.66796875,278.3203125,431.15234375,13.18359375,1758422953.7870035,1758422953.8173516
906,32.71484375,228.02734375,316.89453125,17.08984375,1758422953.7908633,1758422953.8212578
907,23.92578125,273.4375,427.734375,11.71875,1758422953.7947228,1758422953.825164
908,18.5546875,365.72265625,646.97265625,6.34765625,1758422953.7985823,1758422953.8290703
909,20.01953125,262.20703125,504.39453125,17.578125,1758422953.8024418,1758422953.8329766
910,23.92578125,269.53125,448.2421875,20.99609375,1758422953.8063014,1758422953.8368828
911,40.0390625,300.78125,545.41015625,20.01953125,1758422953.8101609,1758422953.840789
912,51.26953125,263.671875,563.4765625,27.34375,1758422953.8148775,1758422953.8446953
913,45.8984375,206.0546875,458.984375,26.3671875,1758422953.8195941,1758422953.8486016
914,52.734375,208.984375,468.26171875,28.3203125,1758422953.8243108,1758422953.8525078
915,54.6875,239.2578125,560.546875,34.1796875,1758422953.8290274,1758422953.856414
916,39.55078125,183.59375,475.09765625,32.2265625,1758422953.833744,1758422953.8603203
917,37.109375,177.734375,477.5390625,32.2265625,1758422953.8384607,1758422953.8642266
918,49.8046875,123.046875,394.04296875,37.59765625,1758422953.8431773,1758422953.8681328
919,51.26953125,212.890625,540.0390625,38.0859375,1758422953.847894,1758422953.872039
920,37.59765625,237.79296875,693.84765625,33.203125,1758422953.8526106,1758422953.8759453
921,33.203125,102.05078125,462.890625,23.92578125,1758422953.8573272,1758422953.8798516
922,30.2734375,107.91015625,464.84375,25.390625,1758422953.8620439,1758422953.8837578
923,30.2734375,139.16015625,541.9921875,24.4140625,1758422953.8667605,1758422953.887664
924,28.3203125,102.5390625,492.67578125,14.16015625,1758422953.8706074,1758422953.8915703
925,27.83203125,67.3828125,416.50390625,23.92578125,1758422953.8744543,1758422953.8954766
926,41.50390625,91.30859375,475.09765625,27.83203125,1758422953.8783011,1758422953.8993828
927,39.55078125,99.12109375,537.59765625,21.97265625,1758422953.882148,1758422953.903289
928,30.76171875,47.36328125,479.98046875,22.94921875,1758422953.885995,1758422953.9071953
929,33.69140625,-55.6640625,295.8984375,30.2734375,1758422953.889842,1758422953.9111016
930,42.96875,13.18359375,339.84375,43.45703125,1758422953.893689,1758422953.9150078
931,51.26953125,127.9296875,591.796875,43.9453125,1758422953.8975358,1758422953.918914
932,58.59375,63.4765625,556.640625,49.31640625,1758422953.9013827,1758422953.9228203
933,66.40625,-17.578125,321.2890625,59.08203125,1758422953.9052296,1758422953.9267266
934,54.6875,77.1484375,406.25,54.19921875,1758422953.9090765,1758422953.9306328
935,45.41015625,113.76953125,562.01171875,48.33984375,1758422953.9129233,1758422953.934539
936,50.29296875,22.94921875,411.1328125,51.26953125,1758422953.916752,1758422953.9384453
937,60.05859375,34.1796875,383.30078125,61.5234375,1758422953.9205809,1758422953.9423516
938,71.77734375,76.171875,463.8671875,68.84765625,1758422953.9244094,1758422953.9462578
939,50.29296875,56.15234375,438.4765625,44.43359375,1758422953.9282382,1758422953.950164
940,35.15625,4.39453125,351.07421875,25.390625,1758422953.932067,1758422953.9540703
941,45.41015625,-20.5078125,291.015625,35.15625,1758422953.9358957,1758422953.9579766
942,47.36328125,53.22265625,417.48046875,35.64453125,1758422953.9397244,1758422953.9618828
943,48.33984375,71.2890625,478.515625,19.53125,1758422953.9435532,1758422953.965789
944,45.41015625,-39.55078125,307.6171875,13.671875,1758422953.947382,1758422953.9696953
945,37.109375,-49.8046875,209.47265625,30.2734375,1758422953.9512105,1758422953.9736016
946,31.25,108.3984375,475.09765625,30.2734375,1758422953.9550393,1758422953.9775078
947,15.625,32.71484375,484.375,15.13671875,1758422953.958868,1758422953.981414
948,12.20703125,-62.01171875,249.51171875,12.20703125,1758422953.9626138,1758422953.9853203
949,18.5546875,-20.99609375,288.0859375,9.27734375,1758422953.9663596,1758422953.9892266
950,24.90234375,-1.46484375,371.09375,15.13671875,1758422953.9701054,1758422953.9931328
951,14.16015625,-46.38671875,292.48046875,17.08984375,1758422953.9738512,1758422953.997039
952,5.859375,-75.1953125,201.171875,7.8125,1758422953.977597,1758422954.0009453
953,4.8828125,-78.125,178.22265625,11.71875,1758422953.9813428,1758422954.0048516
954,10.25390625,-37.109375,274.90234375,9.765625,1758422953.9850883,1758422954.0087578
955,11.71875,-45.41015625,311.5234375,-0.9765625,1758422953.9888341,1758422954.012664
956,-0.48828125,-184.08203125,18.5546875,-4.8828125,1758422953.99258,1758422954.0165703
957,-5.859375,-109.375,93.26171875,-4.8828125,1758422953.9963257,1758422954.0204766
958,-12.20703125,-29.296875,335.9375,-6.8359375,1758422954.0000715,1758422954.0243828
959,-14.6484375,-149.90234375,81.54296875,-8.7890625,1758422954.0038173,1758422954.028289
960,-2.9296875,-106.4453125,28.80859375,-6.8359375,1758422954.0076838,1758422954.0321953
961,2.9296875,-29.78515625,179.19921875,-8.30078125,1758422954.0115504,1758422954.0361016
962,4.39453125,-94.7265625,143.5546875,-7.32421875,1758422954.0154169,1758422954.0400078
963,1.46484375,-155.2734375,-22.4609375,0.48828125,1758422954.0192833,1758422954.043914
964,-2.44140625,-166.50390625,-71.77734375,-0.48828125,1758422954.02315,1758422954.0478203
965,1.953125,-141.11328125,-41.50390625,-3.41796875,1758422954.0270164,1758422954.0517266
966,4.8828125,-95.21484375,5.37109375,-0.9765625,1758422954.0308828,1758422954.0556328
967,-4.39453125,-171.875,-76.66015625,-7.8125,1758422954.0347495,1758422954.059539
968,-5.37109375,-188.4765625,-220.703125,-3.90625,1758422954.038616,1758422954.0634453
969,-5.37109375,-61.5234375,11.23046875,0.0,1758422954.0424824,1758422954.0673516
970,-7.8125,-147.94921875,-6.34765625,-3.90625,1758422954.046349,1758422954.0712578
971,-6.34765625,-229.98046875,-219.7265625,-3.90625,1758422954.0502155,1758422954.075164
972,-15.625,-200.1953125,-199.70703125,-7.8125,1758422954.0539732,1758422954.0790703
973,-22.4609375,-196.77734375,-169.921875,-15.625,1758422954.057731,1758422954.0829766
974,-19.53125,-238.76953125,-257.8125,-20.99609375,1758422954.0614886,1758422954.0868828
975,-19.04296875,-242.67578125,-283.203125,-23.92578125,1758422954.0652463,1758422954.090789
976,-21.484375,-220.21484375,-232.421875,-21.97265625,1758422954.069004,1758422954.0946953
977,-26.3671875,-237.79296875,-240.234375,-26.3671875,1758422954.072762,1758422954.0986016
978,-34.66796875,-249.51171875,-253.90625,-32.2265625,1758422954.0765197,1758422954.1025078
979,-33.69140625,-334.47265625,-389.6484375,-20.99609375,1758422954.0802774,1758422954.106414
980,-29.296875,-264.6484375,-343.75,-15.13671875,1758422954.0840352,1758422954.1103203
981,-21.97265625,-159.1796875,-33.69140625,-17.578125,1758422954.0877929,1758422954.1142266
982,-23.4375,-331.54296875,-240.72265625,-17.08984375,1758422954.0915506,1758422954.1181328
983,-23.92578125,-339.84375,-325.1953125,-15.625,1758422954.0953083,1758422954.122039
984,-8.30078125,-312.01171875,-201.66015625,-12.20703125,1758422954.098912,1758422954.1259453
985,9.27734375,-370.60546875,-229.98046875,-2.44140625,1758422954.1025157,1758422954.1298516
986,-17.08984375,-431.15234375,-337.40234375,-9.27734375,1758422954.1061194,1758422954.1337578
987,-53.22265625,-443.84765625,-343.75,-39.0625,1758422954.109723,1758422954.137664
988,-41.015625,-446.2890625,-296.875,-37.109375,1758422954.1133268,1758422954.1415703
989,-31.25,-497.55859375,-357.91015625,-27.83203125,1758422954.1169305,1758422954.1454766
990,-27.83203125,-520.5078125,-321.77734375,-27.83203125,1758422954.120534,1758422954.1493828
991,-32.71484375,-612.3046875,-451.66015625,-20.01953125,1758422954.1241376,1758422954.153289
992,-32.71484375,-545.8984375,-302.734375,-19.04296875,1758422954.1277413,1758422954.1571953
993,-23.4375,-547.8515625,-140.13671875,-27.34375,1758422954.131345,1758422954.1611016
994,-19.53125,-685.546875,-396.484375,-31.25,1758422954.1349487,1758422954.1650078
995,-22.4609375,-669.43359375,-370.60546875,-29.296875,1758422954.1385524,1758422954.168914
,TP9,AF7,AF8,TP10,board_ts,unix_ts
0,-19.53125,-645.99609375,-269.53125,-24.90234375,1758422954.1423328,1758422954.1715436
1,-17.578125,-689.94140625,-317.87109375,-22.94921875,1758422954.1461132,1758422954.1754498
2,-20.5078125,-723.6328125,-391.11328125,-14.6484375,1758422954.1498938,1758422954.179356
3,-11.71875,-680.6640625,-333.49609375,-9.27734375,1758422954.1536741,1758422954.1832623
4,-4.8828125,-701.66015625,-289.0625,-13.18359375,1758422954.1574545,1758422954.1871686
5,-2.44140625,-737.79296875,-364.74609375,-4.8828125,1758422954.1612349,1758422954.1910748
6,-5.37109375,-800.78125,-494.62890625,6.34765625,1758422954.1650152,1758422954.194981
7,-1.953125,-714.35546875,-413.57421875,6.34765625,1758422954.1687956,1758422954.1988873
8,-1.46484375,-568.359375,-86.9140625,1.46484375,1758422954.172576,1758422954.2027936
9,-5.37109375,-712.40234375,-250.9765625,-7.32421875,1758422954.1763566,1758422954.2066998
10,1.46484375,-706.0546875,-376.953125,-7.8125,1758422954.180137,1758422954.210606
11,11.23046875,-632.32421875,-283.203125,-0.48828125,1758422954.1839173,1758422954.2145123
12,-3.41796875,-654.296875,-283.69140625,-3.41796875,1758422954.1887589,1758422954.2184186
13,-20.5078125,-694.3359375,-389.16015625,-8.7890625,1758422954.1936007,1758422954.2223248
14,-16.11328125,-668.9453125,-393.5546875,-4.39453125,1758422954.1984422,1758422954.226231
15,-10.7421875,-616.2109375,-301.26953125,-7.8125,1758422954.2032838,1758422954.2301373
16,-5.859375,-642.08984375,-329.58984375,-5.37109375,1758422954.2081256,1758422954.2340436
17,-2.44140625,-705.078125,-422.36328125,0.0,1758422954.2129672,1758422954.2379498
18,-7.8125,-668.9453125,-456.54296875,1.46484375,1758422954.2178087,1758422954.241856
19,-7.8125,-538.0859375,-205.56640625,0.9765625,1758422954.2226505,1758422954.2457623
20,-4.8828125,-615.234375,-208.49609375,-13.18359375,1758422954.227492,1758422954.2496686
21,-11.71875,-716.30859375,-428.22265625,-15.13671875,1758422954.2323337,1758422954.2535748
22,-10.7421875,-660.15625,-310.05859375,-16.6015625,1758422954.2371755,1758422954.257481
23,-14.16015625,-587.40234375,-137.6953125,-16.6015625,1758422954.242017,1758422954.2613873
24,-20.99609375,-648.4375,-206.54296875,-11.23046875,1758422954.2458656,1758422954.2652936
25,-16.11328125,-698.2421875,-299.8046875,-10.25390625,1758422954.2497141,1758422954.2691998
26,-17.08984375,-661.1328125,-221.6796875,-14.16015625,1758422954.2535627,1758422954.273106
27,-16.11328125,-639.16015625,-113.76953125,-14.6484375,1758422954.2574112,1758422954.2770123
28,-4.8828125,-685.546875,-156.73828125,-6.8359375,1758422954.2612598,1758422954.2809186
29,-3.90625,-792.96875,-340.8203125,-5.37109375,1758422954.2651086,1758422954.2848248
30,1.46484375,-708.0078125,-195.80078125,-4.39453125,1758422954.2689571,1758422954.288731
31,7.8125,-609.86328125,86.42578125,-5.859375,1758422954.2728057,1758422954.2926373
32,-5.37109375,-718.26171875,-49.8046875,-10.25390625,1758422954.2766542,1758422954.2965436
33,-10.25390625,-702.1484375,-103.02734375,-11.71875,1758422954.2805028,1758422954.3004498
34,-5.37109375,-641.6015625,5.859375,-7.32421875,1758422954.2843513,1758422954.304356
35,-1.46484375,-700.68359375,-47.36328125,-3.41796875,1758422954.2882,1758422954.3082623
36,10.7421875,-715.33203125,-74.70703125,-5.859375,1758422954.2920012,1758422954.3121686
37,7.8125,-640.625,17.08984375,-1.46484375,1758422954.2958024,1758422954.3160748
38,-0.9765625,-595.21484375,121.09375,1.46484375,1758422954.2996037,1758422954.319981
39,2.9296875,-644.53125,121.09375,-1.46484375,1758422954.303405,1758422954.3238873
40,-0.48828125,-699.21875,19.53125,-9.27734375,1758422954.3072062,1758422954.3277936
41,-0.48828125,-707.03125,-10.7421875,-12.6953125,1758422954.3110075,1758422954.3316998
42,7.8125,-625.9765625,151.3671875,-9.27734375,1758422954.3148088,1758422954.335606
43,8.7890625,-615.72265625,234.375,-5.37109375,1758422954.31861,1758422954.3395123
44,8.30078125,-709.9609375,78.125,0.9765625,1758422954.3224113,1758422954.3434186
45,10.25390625,-676.26953125,87.890625,0.0,1758422954.3262126,1758422954.3473248
46,9.27734375,-573.2421875,306.15234375,-7.8125,1758422954.3300138,1758422954.351231
47,-0.9765625,-653.80859375,264.16015625,-1.953125,1758422954.333815,1758422954.3551373
48,-0.9765625,-708.49609375,132.8125,1.46484375,1758422954.3376832,1758422954.3590436
49,9.765625,-702.63671875,154.78515625,-2.9296875,1758422954.3415513,1758422954.3629498
50,11.71875,-673.33984375,253.41796875,0.48828125,1758422954.3454194,1758422954.366856
51,11.23046875,-648.92578125,332.03125,-0.9765625,1758422954.3492873,1758422954.3707623
52,7.8125,-768.5546875,187.98828125,-4.39453125,1758422954.3531554,1758422954.3746686
53,12.6953125,-749.51171875,170.41015625,-2.9296875,1758422954.3570235,1758422954.3785748
54,29.78515625,-628.90625,416.015625,18.06640625,1758422954.3608916,1758422954.382481
55,30.2734375,-659.1796875,431.640625,32.2265625,1758422954.3647597,1758422954.3863873
56,30.2734375,-796.875,166.9921875,27.83203125,1758422954.3686275,1758422954.3902936
57,20.5078125,-729.98046875,250.48828125,11.23046875,1758422954.3724957,1758422954.3941998
58,6.8359375,-632.8125,524.4140625,-5.859375,1758422954.3763638,1758422954.398106
59,7.8125,-757.8125,363.28125,-0.48828125,1758422954.3802319,1758422954.4020123
60,8.7890625,-755.37109375,342.7734375,4.8828125,1758422954.3838432,1758422954.4059186
61,15.625,-728.02734375,446.2890625,3.90625,1758422954.3874545,1758422954.4098248
62,27.34375,-775.87890625,459.47265625,15.13671875,1758422954.3910658,1758422954.413731
63,24.90234375,-845.703125,373.046875,21.484375,1758422954.3946772,1758422954.4176373
64,24.90234375,-878.90625,340.33203125,20.01953125,1758422954.3982885,1758422954.4215436
65,41.9921875,-857.91015625,426.7578125,31.25,1758422954.4018998,1758422954.4254498
66,41.9921875,-830.078125,512.20703125,33.69140625,1758422954.4055114,1758422954.429356
67,45.8984375,-866.69921875,506.8359375,40.52734375,1758422954.4091227,1758422954.4332623
68,62.01171875,-970.703125,284.66796875,47.36328125,1758422954.412734,1758422954.4371686
69,43.9453125,-840.8203125,496.58203125,43.45703125,1758422954.4163454,1758422954.4410748
70,40.52734375,-819.82421875,657.71484375,45.41015625,1758422954.4199567,1758422954.444981
71,56.15234375,-922.8515625,435.05859375,52.24609375,1758422954.423568,1758422954.4488873
72,63.96484375,-882.8125,447.265625,55.17578125,1758422954.4273372,1758422954.4527936
73,68.359375,-833.49609375,526.85546875,51.7578125,1758422954.4311063,1758422954.4566998
74,66.89453125,-847.16796875,492.1875,47.8515625,1758422954.4348755,1758422954.460606
75,73.2421875,-845.703125,442.87109375,49.8046875,1758422954.438645,1758422954.4645123
76,80.078125,-793.9453125,478.515625,49.8046875,1758422954.442414,1758422954.4684186
77,78.61328125,-796.875,467.7734375,47.36328125,1758422954.4461832,1758422954.4723248
78,78.61328125,-748.046875,477.5390625,50.78125,1758422954.4499524,1758422954.476231
79,81.54296875,-806.15234375,356.93359375,61.5234375,1758422954.4537215,1758422954.4801373
80,76.171875,-707.03125,407.71484375,65.91796875,1758422954.457491,1758422954.4840436
81,83.984375,-537.109375,696.2890625,65.4296875,1758422954.46126,1758422954.4879498
82,91.30859375,-656.73828125,513.671875,81.0546875,1758422954.4650292,1758422954.491856
83,87.890625,-612.79296875,447.265625,82.51953125,1758422954.4687984,1758422954.4957623
84,82.51953125,-529.296875,553.22265625,80.078125,1758422954.4725468,1758422954.4996686
85,81.0546875,-540.52734375,501.953125,87.40234375,1758422954.4762952,1758422954.5035748
86,88.37890625,-561.03515625,380.859375,85.44921875,1758422954.4800436,1758422954.507481
87,82.03125,-501.46484375,407.71484375,80.56640625,1758422954.483792,1758422954.5113873
88,79.58984375,-455.56640625,442.87109375,68.84765625,1758422954.4875405,1758422954.5152936
89,76.171875,-450.68359375,374.51171875,57.6171875,1758422954.4912891,1758422954.5191998
90,66.40625,-420.8984375,380.37109375,57.6171875,1758422954.4950376,1758422954.523106
91,79.1015625,-373.53515625,334.9609375,60.05859375,1758422954.498786,1758422954.5270123
92,80.078125,-249.51171875,481.93359375,61.03515625,1758422954.5025344,1758422954.5309186
93,66.89453125,-306.640625,426.7578125,57.6171875,1758422954.5062828,1758422954.5348248
94,65.4296875,-358.88671875,250.9765625,55.17578125,1758422954.5100312,1758422954.538731
95,64.94140625,-292.96875,317.3828125,57.12890625,1758422954.5137796,1758422954.5426373
96,55.6640625,-198.2421875,420.41015625,44.43359375,1758422954.5175407,1758422954.5465436
97,44.921875,-223.14453125,331.54296875,36.62109375,1758422954.5213017,1758422954.5504498
98,45.8984375,-231.93359375,217.7734375,36.1328125,1758422954.5250628,1758422954.554356
99,45.41015625,-144.53125,296.38671875,35.15625,1758422954.5288239,1758422954.5582623
100,37.59765625,-131.34765625,320.80078125,23.92578125,1758422954.532585,1758422954.5621686
101,35.64453125,-153.3203125,209.47265625,14.16015625,1758422954.536346,1758422954.5660748
102,37.59765625,-167.48046875,88.37890625,17.578125,1758422954.5401073,1758422954.569981
103,34.66796875,-61.03515625,205.078125,19.04296875,1758422954.5438683,1758422954.5738873
104,24.90234375,57.6171875,406.25,14.16015625,1758422954.5476294,1758422954.5777936
105,24.4140625,-27.34375,226.5625,13.18359375,1758422954.5513904,1758422954.5816998
106,28.3203125,16.11328125,179.19921875,17.578125,1758422954.5551515,1758422954.585606
107,19.53125,53.22265625,198.2421875,14.16015625,1758422954.5589125,1758422954.5895123
108,8.7890625,62.5,208.984375,2.9296875,1758422954.5627818,1758422954.5934186
109,3.41796875,50.29296875,165.0390625,2.44140625,1758422954.5666513,1758422954.5973248
110,-0.9765625,72.265625,102.05078125,8.30078125,1758422954.5705206,1758422954.601231
111,6.8359375,151.3671875,229.4921875,4.8828125,1758422954.57439,1758422954.6051373
112,13.671875,80.078125,163.57421875,2.44140625,1758422954.5782595,1758422954.6090436
113,0.0,22.4609375,32.71484375,0.48828125,1758422954.5821288,1758422954.6129498
114,-8.30078125,81.54296875,50.29296875,-6.8359375,1758422954.585998,1758422954.616856
115,-4.39453125,186.5234375,235.3515625,-10.7421875,1758422954.5898676,1758422954.6207623
116,-2.44140625,115.234375,223.6328125,-13.671875,1758422954.593737,1758422954.6246686
117,-23.4375,31.73828125,47.36328125,-16.6015625,1758422954.5976062,1758422954.6285748
118,-31.73828125,44.43359375,68.84765625,-15.625,1758422954.6014757,1758422954.632481
119,-24.4140625,80.078125,145.99609375,-13.18359375,1758422954.605345,1758422954.6363873
120,-19.53125,53.22265625,110.3515625,-19.04296875,1758422954.6102252,1758422954.6402936
121,-16.6015625,-20.99609375,-12.20703125,-24.90234375,1758422954.6151054,1758422954.6441998
122,-29.296875,-11.23046875,-34.66796875,-25.87890625,1758422954.6199856,1758422954.648106
123,-32.71484375,55.6640625,118.1640625,-29.296875,1758422954.6248658,1758422954.6520123
124,-32.71484375,-4.39453125,94.7265625,-39.55078125,1758422954.629746,1758422954.6559186
125,-23.92578125,-162.59765625,-173.828125,-41.015625,1758422954.6346262,1758422954.6598248
126,-13.671875,-61.03515625,-113.76953125,-33.203125,1758422954.6395063,1758422954.663731
127,-11.23046875,115.234375,262.6953125,-31.73828125,1758422954.6443865,1758422954.6676373
128,-15.625,-55.6640625,106.93359375,-37.59765625,1758422954.6492667,1758422954.6715436
129,-32.2265625,-91.30859375,-50.29296875,-39.0625,1758422954.654147,1758422954.6754498
130,-24.4140625,-38.0859375,54.6875,-32.71484375,1758422954.659027,1758422954.679356
131,-19.04296875,-80.078125,50.78125,-24.90234375,1758422954.6639073,1758422954.6832623
132,-16.11328125,-132.8125,-28.80859375,-26.85546875,1758422954.6676188,1758422954.6871686
133,-26.85546875,-111.81640625,-37.109375,-36.1328125,1758422954.6713305,1758422954.6910748
134,-33.69140625,-79.58984375,43.9453125,-30.2734375,1758422954.6750422,1758422954.694981
135,-14.16015625,-128.90625,28.80859375,-19.04296875,1758422954.6787536,1758422954.6988873
136,-9.765625,-180.6640625,-62.5,-13.671875,1758422954.682465,1758422954.7027936
137,-6.34765625,-180.6640625,-116.69921875,-11.23046875,1758422954.6861768,1758422954.7066998
138,-5.859375,-103.515625,-12.6953125,-21.484375,1758422954.6898885,1758422954.710606
139,-11.23046875,-83.49609375,89.84375,-17.578125,1758422954.6936,1758422954.7145123
140,-2.44140625,-195.3125,-53.7109375,-9.765625,1758422954.6973114,1758422954.7184186
141,4.39453125,-191.40625,-165.52734375,-6.8359375,1758422954.701023,1758422954.7223248
142,-1.953125,-44.43359375,60.546875,1.46484375,1758422954.7047348,1758422954.726231
143,-3.90625,-109.375,64.453125,-2.9296875,1758422954.7084463,1758422954.7301373
144,14.6484375,-176.7578125,-115.72265625,3.41796875,1758422954.7122307,1758422954.7340436
145,21.97265625,-132.32421875,-84.9609375,8.7890625,1758422954.716015,1758422954.7379498
146,14.6484375,-88.8671875,16.11328125,3.41796875,1758422954.7197995,1758422954.741856
147,19.04296875,-111.328125,-16.6015625,5.37109375,1758422954.723584,1758422954.7457623
148,9.27734375,-159.66796875,-128.90625,15.625,1758422954.7273684,1758422954.7496686
149,16.11328125,-123.53515625,-116.69921875,30.2734375,1758422954.731153,1758422954.7535748
150,27.83203125,-76.171875,-11.71875,27.83203125,1758422954.7349374,1758422954.757481
151,17.578125,-79.58984375,-27.34375,22.94921875,1758422954.7387218,1758422954.7613873
152,15.625,-159.1796875,-194.3359375,29.296875,1758422954.7425063,1758422954.7652936
153,26.85546875,-56.15234375,-94.7265625,34.1796875,1758422954.7462907,1758422954.7691998
154,38.0859375,87.890625,193.84765625,24.4140625,1758422954.750075,1758422954.773106
155,33.203125,-64.94140625,-14.16015625,15.625,1758422954.7538595,1758422954.7770123
156,20.5078125,-42.48046875,-67.87109375,17.578125,1758422954.7576108,1758422954.7809186
157,19.53125,14.6484375,43.9453125,15.625,1758422954.761362,1758422954.7848248
158,28.3203125,-17.08984375,10.25390625,23.92578125,1758422954.765113,1758422954.788731
159,32.2265625,-39.55078125,-77.1484375,29.296875,1758422954.7688644,1758422954.7926373
160,27.83203125,-29.78515625,-102.05078125,23.92578125,1758422954.7726157,1758422954.7965436
161,27.34375,-1.46484375,-69.82421875,27.34375,1758422954.7763667,1758422954.8004498
162,39.55078125,51.7578125,1.46484375,26.3671875,1758422954.780118,1758422954.804356
163,33.203125,12.6953125,-24.4140625,20.01953125,1758422954.7838693,1758422954.8082623
164,29.296875,11.23046875,-134.27734375,29.296875,1758422954.7876205,1758422954.8121686
165,43.45703125,151.3671875,21.484375,38.57421875,1758422954.7913718,1758422954.8160748
166,41.015625,143.06640625,75.1953125,36.1328125,1758422954.7951229,1758422954.819981
167,34.66796875,35.15625,-99.609375,28.3203125,1758422954.7988741,1758422954.8238873
168,36.62109375,46.38671875,-127.9296875,23.92578125,1758422954.8026185,1758422954.8277936
169,39.0625,168.45703125,50.29296875,20.5078125,1758422954.806363,1758422954.8316998
170,37.109375,119.140625,-19.04296875,16.6015625,1758422954.8101075,1758422954.835606
171,24.90234375,110.3515625,-95.21484375,25.87890625,1758422954.813852,1758422954.8395123
172,24.4140625,128.90625,-76.171875,24.90234375,1758422954.8175964,1758422954.8434186
173,34.1796875,112.79296875,-108.88671875,20.01953125,1758422954.821341,1758422954.8473248
174,20.99609375,172.8515625,-21.97265625,10.7421875,1758422954.8250854,1758422954.851231
175,13.18359375,67.87109375,-157.71484375,7.32421875,1758422954.8288298,1758422954.8551373
176,12.6953125,112.79296875,-176.26953125,15.625,1758422954.8325744,1758422954.8590436
177,9.765625,249.51171875,94.7265625,7.32421875,1758422954.8363187,1758422954.8629498
178,10.25390625,136.23046875,-48.33984375,5.37109375,1758422954.8400633,1758422954.866856
179,7.8125,120.1171875,-173.33984375,5.859375,1758422954.8438077,1758422954.8707623
180,-1.46484375,197.265625,-61.03515625,0.0,1758422954.847576,1758422954.8746686
181,7.8125,202.63671875,0.9765625,6.34765625,1758422954.851344,1758422954.8785748
182,11.23046875,122.0703125,-123.53515625,1.953125,1758422954.855112,1758422954.882481
183,-7.8125,167.96875,-129.39453125,-2.44140625,1758422954.8588803,1758422954.8863873
184,5.37109375,236.81640625,-11.23046875,2.9296875,1758422954.8626485,1758422954.8902936
185,13.18359375,187.5,-51.7578125,-6.34765625,1758422954.8664167,1758422954.8941998
186,2.9296875,173.33984375,-81.54296875,-10.7421875,1758422954.870185,1758422954.898106
187,-2.44140625,199.21875,-97.65625,-2.44140625,1758422954.873953,1758422954.9020123
188,2.9296875,304.6875,58.10546875,-6.8359375,1758422954.8777213,1758422954.9059186
189,0.0,257.32421875,86.9140625,-6.8359375,1758422954.8814893,1758422954.9098248
190,-8.30078125,164.0625,-108.88671875,-6.34765625,1758422954.8852575,1758422954.913731
191,-8.30078125,198.73046875,-91.30859375,-13.18359375,1758422954.8890257,1758422954.9176373
192,2.44140625,261.23046875,40.0390625,-6.8359375,1758422954.8941317,1758422954.9215436
193,14.6484375,229.98046875,-15.13671875,-11.23046875,1758422954.8992376,1758422954.9254498
194,7.32421875,145.99609375,-173.33984375,-13.18359375,1758422954.9043436,1758422954.929356
195,-4.8828125,218.26171875,-78.125,-16.11328125,1758422954.9094496,1758422954.9332623
196,-8.7890625,285.15625,77.63671875,-19.53125,1758422954.9145555,1758422954.9371686
197,5.859375,212.40234375,-26.85546875,-24.4140625,1758422954.9196615,1758422954.9410748
198,-0.48828125,160.15625,-153.3203125,-21.97265625,1758422954.9247677,1758422954.944981
199,-19.04296875,229.00390625,-39.55078125,-14.6484375,1758422954.9298737,1758422954.9488873
200,-10.25390625,327.63671875,197.75390625,-20.99609375,1758422954.9349797,1758422954.9527936
201,-18.5546875,215.33203125,37.59765625,-26.3671875,1758422954.9400856,1758422954.9566998
202,-32.71484375,219.7265625,-27.83203125,-20.01953125,1758422954.9451916,1758422954.960606
203,-28.80859375,282.71484375,68.359375,-14.16015625,1758422954.9502976,1758422954.9645123
204,-32.71484375,257.8125,91.796875,-22.94921875,1758422954.9537718,1758422954.9684186
205,-40.0390625,208.0078125,19.53125,-30.76171875,1758422954.957246,1758422954.9723248
206,-33.69140625,235.83984375,22.94921875,-26.85546875,1758422954.9607205,1758422954.976231
207,-34.1796875,281.25,113.28125,-22.4609375,1758422954.9641948,1758422954.9801373
208,-47.8515625,233.88671875,60.546875,-23.4375,1758422954.967669,1758422954.9840436
209,-34.1796875,210.44921875,35.64453125,-26.3671875,1758422954.9711432,1758422954.9879498
210,-21.97265625,262.20703125,143.06640625,-16.11328125,1758422954.9746175,1758422954.991856
211,-30.76171875,311.03515625,268.5546875,-16.11328125,1758422954.9780917,1758422954.9957623
212,-28.80859375,279.78515625,265.625,-23.92578125,1758422954.981566,1758422954.9996686
213,-19.04296875,214.35546875,198.73046875,-27.83203125,1758422954.9850404,1758422955.0035748
214,-28.3203125,163.57421875,43.45703125,-23.92578125,1758422954.9885147,1758422955.007481
215,-35.64453125,340.8203125,308.10546875,-22.94921875,1758422954.991989,1758422955.0113873
216,-27.34375,329.58984375,437.98828125,-35.15625,1758422954.9958394,1758422955.0152936
217,-32.2265625,225.5859375,224.12109375,-33.203125,1758422954.9996898,1758422955.0191998
218,-33.69140625,275.390625,272.94921875,-31.73828125,1758422955.0035405,1758422955.023106
219,-28.80859375,302.734375,358.88671875,-26.3671875,1758422955.007391,1758422955.0270123
220,-34.66796875,256.34765625,301.26953125,-22.94921875,1758422955.0112414,1758422955.0309186
221,-42.96875,141.11328125,93.75,-37.109375,1758422955.015092,1758422955.0348248
222,-48.33984375,194.82421875,147.4609375,-41.9921875,1758422955.0189424,1758422955.038731
223,-43.9453125,315.4296875,373.53515625,-41.9921875,1758422955.0227928,1758422955.0426373
224,-25.87890625,268.5546875,320.3125,-42.48046875,1758422955.0266433,1758422955.0465436
225,-34.66796875,168.9453125,83.0078125,-39.0625,1758422955.030494,1758422955.0504498
226,-46.38671875,263.671875,168.45703125,-35.15625,1758422955.0343444,1758422955.054356
227,-30.2734375,279.78515625,304.19921875,-38.57421875,1758422955.038195,1758422955.0582623
228,-41.015625,160.64453125,139.6484375,-43.9453125,1758422955.0419843,1758422955.0621686
229,-34.66796875,186.5234375,130.37109375,-29.296875,1758422955.0457735,1758422955.0660748
230,-26.85546875,236.81640625,182.6171875,-27.34375,1758422955.049563,1758422955.069981
231,-36.62109375,230.95703125,169.43359375,-40.0390625,1758422955.053352,1758422955.0738873
232,-38.0859375,176.7578125,78.125,-40.52734375,1758422955.0571415,1758422955.0777936
233,-37.59765625,160.64453125,-13.18359375,-38.57421875,1758422955.0609307,1758422955.0816998
234,-40.52734375,262.6953125,114.2578125,-41.9921875,1758422955.0647202,1758422955.085606
235,-31.73828125,282.71484375,156.25,-35.15625,1758422955.0685096,1758422955.0895123
236,-29.78515625,191.89453125,-36.62109375,-27.83203125,1758422955.0722988,1758422955.0934186
237,-39.0625,216.796875,-95.21484375,-27.34375,1758422955.0760882,1758422955.0973248
238,-28.80859375,336.9140625,101.07421875,-29.296875,1758422955.0798774,1758422955.101231
239,-41.50390625,313.96484375,108.3984375,-30.2734375,1758422955.0836668,1758422955.1051373
240,-40.52734375,207.03125,-137.6953125,-21.97265625,1758422955.0874202,1758422955.1090436
241,-32.2265625,231.93359375,-172.8515625,-21.484375,1758422955.0911734,1758422955.1129498
242,-29.296875,340.33203125,15.13671875,-23.4375,1758422955.0949268,1758422955.116856
243,-19.53125,304.19921875,-36.62109375,-25.390625,1758422955.09868,1758422955.1207623
244,-12.20703125,224.12109375,-246.09375,-28.80859375,1758422955.1024334,1758422955.1246686
245,-2.44140625,262.6953125,-259.27734375,-20.01953125,1758422955.1061869,1758422955.1285748
246,0.0,349.12109375,-97.16796875,-6.34765625,1758422955.10994,1758422955.132481
247,-7.8125,326.66015625,-92.28515625,-14.16015625,1758422955.1136935,1758422955.1363873
248,-15.625,192.3828125,-361.328125,-31.73828125,1758422955.1174467,1758422955.1402936
249,-8.7890625,260.7421875,-319.3359375,-29.296875,1758422955.1212,1758422955.1441998
250,-3.41796875,364.2578125,-64.94140625,-18.5546875,1758422955.1249533,1758422955.148106
251,-10.25390625,234.86328125,-259.27734375,-18.5546875,1758422955.1287067,1758422955.1520123
252,-10.7421875,264.6484375,-289.55078125,-16.11328125,1758422955.132473,1758422955.1559186
253,-1.953125,319.3359375,-165.52734375,-8.7890625,1758422955.1362395,1758422955.1598248
254,0.0,271.484375,-190.91796875,-12.6953125,1758422955.1400058,1758422955.163731
255,-1.46484375,229.00390625,-262.20703125,-15.625,1758422955.1437721,1758422955.1676373
256,2.44140625,215.33203125,-273.4375,-10.25390625,1758422955.1475387,1758422955.1715436
257,6.34765625,230.95703125,-245.1171875,-3.90625,1758422955.151305,1758422955.1754498
258,3.90625,266.11328125,-156.25,0.9765625,1758422955.1550713,1758422955.179356
259,-3.41796875,191.40625,-213.8671875,0.48828125,1758422955.1588378,1758422955.1832623
260,-3.90625,163.0859375,-347.65625,10.25390625,1758422955.162604,1758422955.1871686
261,-1.953125,297.36328125,-116.69921875,10.7421875,1758422955.1663704,1758422955.1910748
262,-4.8828125,229.98046875,-88.8671875,3.90625,1758422955.170137,1758422955.194981
263,0.9765625,150.390625,-255.37109375,8.30078125,1758422955.1739032,1758422955.1988873
264,1.953125,176.26953125,-215.8203125,4.8828125,1758422955.1777482,1758422955.2027936
265,-0.48828125,199.70703125,-134.765625,1.953125,1758422955.1815934,1758422955.2066998
266,7.32421875,157.71484375,-211.42578125,11.23046875,1758422955.1854384,1758422955.210606
267,20.5078125,109.375,-300.78125,14.16015625,1758422955.1892834,1758422955.2145123
268,19.04296875,135.25390625,-228.02734375,23.4375,1758422955.1931286,1758422955.2184186
269,7.32421875,179.19921875,-139.16015625,25.390625,1758422955.1969736,1758422955.2223248
270,11.71875,196.2890625,-96.6796875,15.13671875,1758422955.2008185,1758422955.226231
271,13.671875,78.61328125,-278.3203125,16.6015625,1758422955.2046638,1758422955.2301373
272,4.8828125,107.421875,-255.37109375,19.04296875,1758422955.2085087,1758422955.2340436
273,8.30078125,227.05078125,18.06640625,12.6953125,1758422955.2123537,1758422955.2379498
274,14.6484375,118.1640625,-130.37109375,10.25390625,1758422955.216199,1758422955.241856
275,11.71875,135.7421875,-183.10546875,7.32421875,1758422955.220044,1758422955.2457623
276,9.27734375,176.7578125,-105.46875,10.7421875,1758422955.2236886,1758422955.2496686
277,20.5078125,146.484375,-87.40234375,20.5078125,1758422955.2273333,1758422955.2535748
278,22.4609375,108.3984375,-169.921875,18.5546875,1758422955.230978,1758422955.257481
279,17.08984375,115.72265625,-196.77734375,24.4140625,1758422955.2346227,1758422955.2613873
280,16.6015625,125.48828125,-157.2265625,25.87890625,1758422955.2382674,1758422955.2652936
281,15.625,119.62890625,-180.17578125,17.08984375,1758422955.2419121,1758422955.2691998
282,7.32421875,138.18359375,-153.80859375,12.6953125,1758422955.2455568,1758422955.273106
283,-5.37109375,56.640625,-317.3828125,15.13671875,1758422955.2492015,1758422955.2770123
284,6.8359375,175.29296875,-159.1796875,12.6953125,1758422955.2528462,1758422955.2809186
285,20.01953125,246.58203125,77.1484375,2.9296875,1758422955.256491,1758422955.2848248
286,5.859375,75.1953125,-205.56640625,2.44140625,1758422955.2601357,1758422955.288731
287,-16.6015625,90.33203125,-237.79296875,-0.48828125,1758422955.2637804,1758422955.2926373
288,-5.859375,180.6640625,-74.21875,-3.41796875,1758422955.2675369,1758422955.2965436
289,0.0,129.39453125,-166.015625,0.48828125,1758422955.2712934,1758422955.3004498
290,-13.18359375,97.16796875,-269.04296875,-7.32421875,1758422955.2750502,1758422955.304356
291,-22.4609375,152.34375,-197.75390625,-18.06640625,1758422955.2788067,1758422955.3082623
292,-26.3671875,137.20703125,-185.546875,-19.04296875,1758422955.2825632,1758422955.3121686
293,-32.71484375,118.65234375,-264.6484375,-31.73828125,1758422955.2863197,1758422955.3160748
294,-26.3671875,79.58984375,-363.76953125,-31.25,1758422955.2900763,1758422955.319981
295,-30.2734375,137.6953125,-293.45703125,-21.484375,1758422955.2938328,1758422955.3238873
296,-38.57421875,287.59765625,-3.90625,-30.76171875,1758422955.2975893,1758422955.3277936
297,-18.06640625,188.96484375,-107.91015625,-30.2734375,1758422955.301346,1758422955.3316998
298,-9.765625,169.921875,-255.859375,-26.3671875,1758422955.3051026,1758422955.335606
299,-21.97265625,266.11328125,-105.95703125,-25.390625,1758422955.308859,1758422955.3395123
300,-29.296875,235.83984375,-38.0859375,-24.90234375,1758422955.313705,1758422955.3434186
301,-16.6015625,175.29296875,-174.31640625,-24.4140625,1758422955.318551,1758422955.3473248
302,-4.8828125,221.6796875,-135.7421875,-28.3203125,1758422955.3233972,1758422955.351231
303,2.9296875,270.01953125,-10.25390625,-30.76171875,1758422955.328243,1758422955.3551373
304,18.5546875,225.5859375,-55.6640625,-21.484375,1758422955.3330889,1758422955.3590436
305,21.97265625,187.5,-125.9765625,-23.92578125,1758422955.337935,1758422955.3629498
306,9.765625,221.6796875,-158.69140625,-21.97265625,1758422955.342781,1758422955.366856
307,5.859375,332.51953125,56.640625,-14.16015625,1758422955.347627,1758422955.3707623
308,9.27734375,300.29296875,133.30078125,-13.671875,1758422955.3524728,1758422955.3746686
309,7.32421875,209.9609375,-88.37890625,-1.46484375,1758422955.3573189,1758422955.3785748
310,-4.39453125,245.1171875,-79.58984375,2.9296875,1758422955.362165,1758422955.382481
311,-12.6953125,321.77734375,67.87109375,-1.46484375,1758422955.3670108,1758422955.3863873
312,-12.20703125,305.6640625,46.38671875,-8.30078125,1758422955.370858,1758422955.3902936
313,-25.390625,236.81640625,-113.28125,-11.71875,1758422955.374705,1758422955.3941998
314,-27.83203125,263.671875,-109.375,-8.7890625,1758422955.3785522,1758422955.398106
315,-22.4609375,330.56640625,30.2734375,-8.30078125,1758422955.3823993,1758422955.4020123
316,-25.390625,284.1796875,-30.76171875,-19.04296875,1758422955.3862464,1758422955.4059186
317,-20.01953125,187.98828125,-244.140625,-24.4140625,1758422955.3900933,1758422955.4098248
318,-26.3671875,263.18359375,-172.36328125,-26.85546875,1758422955.3939404,1758422955.413731
319,-33.69140625,360.3515625,83.984375,-22.4609375,1758422955.3977876,1758422955.4176373
320,-23.4375,262.6953125,-31.25,-17.08984375,1758422955.4016347,1758422955.4215436
321,-18.06640625,250.48828125,-161.1328125,-13.671875,1758422955.4054818,1758422955.4254498
322,-25.87890625,314.453125,-66.89453125,-12.20703125,1758422955.409329,1758422955.429356
323,-29.296875,262.6953125,-73.2421875,-20.01953125,1758422955.413176,1758422955.4332623
324,-29.296875,212.40234375,-184.5703125,-19.04296875,1758422955.416977,1758422955.4371686
325,-34.66796875,280.2734375,-156.73828125,-16.11328125,1758422955.4207776,1758422955.4410748
326,-28.3203125,333.0078125,-29.296875,-12.20703125,1758422955.4245784,1758422955.444981
327,-21.97265625,284.66796875,-41.9921875,-22.94921875,1758422955.4283793,1758422955.4488873
328,-18.5546875,228.02734375,-196.2890625,-20.5078125,1758422955.43218,1758422955.4527936
329,-10.25390625,220.21484375,-260.7421875,-2.44140625,1758422955.4359808,1758422955.4566998
330,-20.01953125,295.41015625,-144.53125,-14.16015625,1758422955.4397817,1758422955.460606
331,-43.9453125,311.03515625,-77.1484375,-35.64453125,1758422955.4435823,1758422955.4645123
332,-41.50390625,232.91015625,-261.71875,-41.015625,1758422955.4473832,1758422955.4684186
333,-26.3671875,279.78515625,-288.57421875,-31.73828125,1758422955.451184,1758422955.4723248
334,-23.92578125,379.8828125,-103.515625,-24.4140625,1758422955.4549847,1758422955.476231
335,-33.203125,326.171875,-166.015625,-38.57421875,1758422955.4587855,1758422955.4801373
336,-34.1796875,273.92578125,-327.63671875,-53.7109375,1758422955.462659,1758422955.4840436
337,-36.1328125,311.5234375,-288.57421875,-54.19921875,1758422955.4665325,1758422955.4879498
338,-35.64453125,329.1015625,-253.41796875,-49.8046875,1758422955.4704058,1758422955.491856
339,-36.62109375,315.4296875,-328.125,-52.24609375,1758422955.4742794,1758422955.4957623
340,-47.36328125,287.109375,-372.0703125,-52.24609375,1758422955.4781528,1758422955.4996686
341,-36.62109375,301.26953125,-366.2109375,-47.36328125,1758422955.482026,1758422955.5035748
342,-36.1328125,392.08984375,-186.5234375,-42.96875,1758422955.4858997,1758422955.507481
343,-45.41015625,363.28125,-161.1328125,-38.0859375,1758422955.489773,1758422955.5113873
344,-45.41015625,228.515625,-455.56640625,-39.55078125,1758422955.4936466,1758422955.5152936
345,-48.33984375,305.17578125,-398.4375,-40.52734375,1758422955.49752,1758422955.5191998
346,-44.921875,414.0625,-95.703125,-33.203125,1758422955.5013936,1758422955.523106
347,-24.90234375,308.59375,-257.8125,-15.625,1758422955.505267,1758422955.5270123
348,-9.765625,324.21875,-317.87109375,1.953125,1758422955.5088713,1758422955.5309186
349,-34.1796875,366.69921875,-217.28515625,-27.83203125,1758422955.5124757,1758422955.5348248
350,-51.26953125,333.49609375,-225.5859375,-54.6875,1758422955.5160804,1758422955.538731
351,-59.08203125,281.25,-346.6796875,-45.8984375,1758422955.5196848,1758422955.5426373
352,-64.94140625,253.41796875,-397.4609375,-47.8515625,1758422955.5232892,1758422955.5465436
353,-57.12890625,291.015625,-328.125,-36.62109375,1758422955.5268936,1758422955.5504498
354,-47.36328125,314.94140625,-267.08984375,-32.2265625,1758422955.530498,1758422955.554356
355,-33.203125,288.57421875,-247.55859375,-42.48046875,1758422955.5341024,1758422955.5582623
356,-34.1796875,214.84375,-432.6171875,-42.96875,1758422955.5377069,1758422955.5621686
357,-43.45703125,330.56640625,-213.8671875,-39.0625,1758422955.5413115,1758422955.5660748
358,-30.2734375,363.28125,9.27734375,-34.1796875,1758422955.544916,1758422955.569981
359,-19.53125,248.046875,-265.625,-29.296875,1758422955.5485203,1758422955.5738873
360,-30.76171875,273.4375,-273.92578125,-34.66796875,1758422955.5522923,1758422955.5777936
