,Fz,C3,Cz,C4
0,0.4907960794749078,3.368091233209632,8.602587196121169,13.617842997413826
1,1.9958516015994496,11.66417862550983,27.419961150881864,42.59336968654979
2,3.7997253763656538,17.984788186346563,39.28247428903236,59.12460350477881
3,5.223007443413904,21.673037792440123,40.71519422184016,57.260144759338175
4,6.834228257116525,25.62540933037154,36.29446146742434,35.50315527558061
5,8.542237122075893,26.534130232818768,30.89311514901948,4.607349038379198
6,9.724435742203568,25.489300001944912,23.71890511060019,-19.18851111286847
7,10.774906698941734,23.49035491162704,6.787867367387548,-50.50625400212744
8,11.548381005300088,20.298995258430296,-10.32951739616351,-65.19509249445684
9,11.969446159478878,15.952112183020745,-24.948937266024583,-56.50996151339064
10,12.469505232828991,9.32275045787094,-38.27903092297106,-45.39784790595286
11,12.689617235717606,3.059623867016626,-44.12284644654051,-19.197149974428385
12,12.572678939316232,-3.524198895155223,-40.916315996352296,11.997769301940709
13,12.372606853398906,-11.418494661859768,-35.26526217274363,35.55326560207982
14,11.823902084627091,-18.218777809009453,-29.37729439370673,49.447330511569135
15,11.119221337442012,-24.082203236796204,-12.67887246402256,55.74943062487
16,10.540516986288708,-26.661843895079983,3.672614381328003,51.84430088412637
17,9.344632110873704,-26.590326093183197,15.139961479339943,22.76557853116697
18,8.120994386660868,-28.562733610848227,30.23013438696489,-9.250783022206631
19,6.92071895342815,-29.44885205644641,36.76173325319883,-31.781738821212684
20,5.31295259772196,-26.217777688219485,38.502762661572206,-49.76198294775418
21,3.969454946530959,-20.315235672083418,41.10442902834643,-50.412881131545646
22,2.3448606304593795,-15.263833863816672,30.53146922047631,-42.93053492144077
23,0.6383045748659697,-10.019308495891892,14.903241015977528,-31.05021350262632
24,-1.2068496130009407,-1.3055949475565285,2.20113052181614,-7.293747378473199
25,-3.0520501734690697,4.702755831559443,-15.541091176005466,22.65519162873602
26,-4.530333608721776,10.5354903543016,-30.91914640535424,43.22077685827867
27,-6.366109546803273,19.09498766763909,-40.72673635537012,52.73924317756132
28,-8.09052057524741,22.288880863034592,-42.37100584537666,58.64634776046546
29,-9.629471680478671,24.14863399350679,-36.79716452179309,35.56723357713054
30,-11.149834466367793,27.1464492633304,-33.60035098231083,2.8447277068144103
31,-12.13531957690202,25.908191787963915,-24.944460919639823,-17.34786361651004
32,-12.762651775339693,25.19875083426041,-8.73078760959379,-49.719488251924304
33,-13.615158902631263,22.927493480292924,7.319149967975136,-67.45738265644604
34,-14.563853359687982,16.33301943427614,23.31749906411233,-62.292846550642025
35,-14.994120952449975,10.046465914255805,37.66905673336851,-48.08260630582299
36,-14.876739078914852,2.6991898333712925,41.97122713475437,-19.729920964881785
37,-14.941697788933196,-3.413628208522823,36.26600485849031,8.313738768454641
38,-15.10814776395364,-10.597693820377115,29.79501588645917,32.132832654793674
39,-14.88728600606828,-17.859868942564844,24.063284628849942,47.69569764400194
40,-14.285998949271743,-20.758332210481512,12.963730765078251,55.71423879260783
41,-12.753337031612318,-25.65455502038685,-4.40737595386554,50.83249578002733
42,-11.338157363747996,-29.78143263697393,-20.54368754385496,21.35575901927996
43,-10.7874386809126,-29.913055137980336,-33.45557357158259,-4.355911484840362
44,-9.654718411510656,-28.39102500565923,-43.74139164409053,-28.87820640916925
45,-7.895277004010495,-24.619752758653703,-44.2578148855041,-53.49660741616117
46,-6.292211615437736,-21.41455693202897,-34.263986843579914,-46.420215997852665
47,-4.617914491735064,-15.752001131247653,-28.30548843004908,-43.75958943042906
48,-2.738076739168718,-8.597608011299144,-21.453699514335312,-40.45554600845799
49,-1.111325004083028,-2.997005842746603,-3.39875973027938,-3.751902438379148
50,0.6838784579613275,5.861364956150737,10.767122478503552,25.155958467755227
51,2.577535669253848,13.246418251435898,24.98769850030885,41.49021257609547
52,4.145868269791208,18.36390978484178,41.30710519558079,51.61913592012752
53,5.814615866137956,22.671471675836077,44.72192212355503,50.435007035202034
54,7.0641934643999775,25.20346604705719,42.915950897152925,35.61711053845829
55,8.383571449121064,27.73152220109841,37.65748402384952,5.2050135771091846
56,9.971859807320923,27.17164089043308,22.47898442849873,-15.087134310784222
57,11.006531119960982,24.61083647061696,5.18725342628295,-38.03613986163373
58,12.019903254838027,19.31732245168405,-11.242042408476664,-63.41447834803466
59,12.635973175447816,14.960825204691446,-26.857432598789277,-56.54869581465528
60,13.206960510421595,11.866034528177806,-38.05156816502313,-32.65565641973308
61,13.625412494647662,2.9277242622301856,-41.437571602348726,-14.187689000655157
62,13.018883638404986,-4.083287797670892,-40.897630318396295,8.830562279129936
63,12.645847440192483,-9.818684500916788,-41.39204293508101,40.072769497171066
64,12.45801903339543,-17.897375589545845,-27.894995986116555,52.24069960442375
65,11.947194959917852,-21.943950402444894,-9.372894348307454,47.230220591861325
66,10.966736411384773,-24.134274189584172,-0.6988372624700787,47.47453944412018
67,10.011506788664974,-27.099881489672956,16.794972829656217,27.910254787154827
68,9.197106294021069,-29.211973828202645,33.265253843354,-8.493064423448686
69,7.633527246390258,-28.301302399254386,40.14946298846462,-28.25769995975452
70,6.022355876852998,-25.591948200154548,45.34097534662397,-44.275606900906496
71,4.229537595986585,-22.46428869346164,40.21708780082645,-61.41063642782592
72,2.576806554792711,-15.539074234513464,27.627159202314036,-51.162405681727705
73,0.9832792174247516,-7.921742447751058,13.8948940010996,-22.615321904625038
74,-1.0552409147448998,-2.5961733146550614,-0.0616705326974624,-3.8420926961739497
75,-2.565515945766492,5.492603140589381,-13.998523696962366,23.790176871644235
76,-4.219184962875261,12.97909553458794,-28.543359461235013,48.49758005453759
77,-6.085143384961157,17.636623133217654,-42.13466951882401,50.46964153720728
78,-7.576891211998372,23.318459074999737,-45.700836190064365,51.42637309442671
79,-8.90244517497922,25.68738697608569,-37.91502984099861,33.98562564246777
80,-10.154372766492996,27.047132080826486,-31.748072035146837,7.375195846177576
81,-11.635233424497528,28.314594840182508,-24.4131706058306,-14.86519704678949
82,-13.110625406724466,25.323796331097583,-9.699048270634194,-39.36452589351984
83,-13.838750728558807,21.86139341414855,7.543197654931646,-45.75269465152542
84,-14.117453549224592,15.438698958289024,21.74106114224196,-49.05564696448391
85,-14.823936170729212,8.613792446562911,30.68580355690756,-41.46419977244659
86,-15.313511324134195,3.942514416803533,37.94177438595034,-14.836825086090812
87,-14.820408568130006,-3.611508915196282,40.59269871057677,9.522944151266527
88,-14.2973850757935,-10.083913021474473,37.44369587356141,38.77239089665909
89,-14.266274933107525,-16.61567673207901,29.48903952168257,59.63294799304094
90,-13.745588410474738,-22.230516132313824,11.499511257751692,58.573839344909175
91,-12.874682628927076,-25.49711371372177,-6.128532191996783,43.9940509422313
92,-11.830058090320565,-29.04037218329449,-19.66395296088467,22.6713427398372
93,-10.69017260284727,-28.886037572570785,-32.37490451039503,-3.6994495401863783
94,-9.27610217966958,-28.151162013536123,-39.0205805275973,-32.45631845440903
95,-7.356892739606337,-25.456197137324125,-45.447408470646224,-52.18468114197504
96,-5.989705564814358,-20.24411156015321,-42.96565508945605,-59.20703927636396
97,-4.098230667456846,-15.28999768139056,-31.46469258365505,-50.92380922079428
98,-2.254127355025957,-8.94184982492061,-20.20368300915743,-29.678749687522213
99,-0.994414492465694,-2.7064433631912834,-2.172953061393855,-3.6702264593923246
100,1.0836006085273766,6.24768580302316,14.743745583112286,25.515013178657227
101,2.8349221510297866,13.168682163770429,26.870080214070185,50.98356434935113
102,4.467600904788924,17.425734434701553,36.25200888590098,57.84527025335501
103,6.213329018534751,24.135370007268648,43.4235035469419,45.46664154295286
104,7.644070330531576,27.82419982232841,40.94318213359384,30.14964580411879
105,8.952200668836667,28.125136505343107,27.53563245382884,10.423915867776486
106,9.96504101163191,28.34128749147567,20.60446393609618,-19.62891885908448
107,11.396485032547387,26.814343329644544,8.478488779633153,-39.57798482387716
108,12.351264041767536,21.467248211551123,-10.930946757654963,-45.63546185818814
109,12.898038927828566,16.292566246054776,-22.99992068098527,-50.01037728015399
110,14.030484597317807,12.051525362535358,-33.40456393392924,-38.60800971302797
111,14.072489688657695,4.00612454441125,-39.687828089055074,-14.676576110045971
112,13.620468850621364,-3.614986893726382,-43.49633593039198,8.126949104024789
113,13.245546649025528,-9.537907848105531,-41.58355338565252,31.649816673759688
114,12.657784579731924,-17.95024623723839,-24.68732336884568,48.89102974114121
115,12.72035268536274,-23.808322950929323,-10.819313762154708,60.208014971306966
116,11.650498563722069,-26.969961277510265,0.2508709293906577,53.30259032345566
117,9.888277697596097,-29.63130386345165,17.830192850922685,23.94545271492097
118,8.979973939133743,-28.69493790997421,30.04954208773961,-5.778059615893653
119,7.594294974195691,-28.53974077660405,40.03260371598299,-32.50476292588246
120,6.032749863224126,-26.919959028100493,42.70941031517941,-52.87057946895493
121,4.720446909101156,-20.12873135281916,38.23915879270589,-54.50111457990806
122,3.1308247309971198,-15.109255818634663,35.73186530727708,-40.826164832728864
123,1.2131959517910218,-9.031269645699467,19.28321050465001,-28.41007903591526
124,-0.7879920936647977,-0.7706252767211481,-0.7549257103964919,-6.967043221176027
125,-2.4393391763787804,5.834170182761227,-11.73324026292812,23.2924575691095
126,-4.090260893219238,12.436772123566698,-26.08651176715557,37.44465026778016
127,-5.729646812158535,17.630121849554598,-36.20479748931393,47.691895737670166
128,-7.347783587597405,23.08233847160227,-38.03166679103197,53.743545095941045
129,-9.00885682563512,26.37437070353008,-38.90915893320562,40.14410133920683
130,-10.140061837666508,25.987927364204552,-36.73053804379106,9.955824875550206
131,-11.339037108717092,26.269051151897656,-24.331967224790787,-20.56412743488545
132,-12.385355355427237,24.724360543076727,-6.288860970777932,-41.88529240363641
133,-12.86519668908204,20.593098573451243,8.591204514614219,-60.31200408529367
134,-13.987700537723867,16.213344151130514,24.925737526275043,-56.11515022176172
135,-15.109679639967908,11.281812188557524,36.15492596488184,-38.37711374363971
136,-15.107718933599244,3.871343782469921,41.21461668847405,-23.014971075434914
137,-14.717018969215133,-3.2181993733493077,46.92545801252436,11.123043010768017
138,-14.354172941407342,-9.331805380646074,39.87125428660238,40.58114256085719
139,-13.718848661971606,-16.544635340114837,25.059849724964806,53.63198066500172
140,-13.159811411896952,-21.114621488083685,13.119298870688,65.1631502033797
141,-12.522577359231946,-25.58291229537917,-3.630199505985729,51.39876633073163
142,-11.47816942015652,-30.195614154383293,-20.23065717992085,21.353180693800823
143,-10.542335029835158,-28.659605706709044,-31.65150837351121,-3.873698644221804
144,-8.971666549838119,-25.04583214566173,-36.10955435042615,-32.148166425017735
145,-7.086426368128741,-22.63830862573468,-38.05651253224096,-52.4531617937937
146,-5.905303801496302,-18.502157840041946,-38.28364450862591,-58.005150223320015
147,-4.143526931101405,-14.182138805460454,-27.99500603951492,-45.43056020611675
148,-2.096771309569704,-8.582563381752152,-17.69860383014111,-25.476551527845917
149,-0.6556707491909037,-0.7588362258238703,-3.4695252156689094,-6.7527172749069
150,1.125547907771761,6.062196819879318,14.863638738429472,25.459964022297758
151,3.073345935241377,11.628714617952935,24.448821176887577,50.9760716940018
152,4.749583804309623,16.739425471868344,32.430561022787515,58.50258826756908
153,6.192500400033168,22.874775705800857,35.70978023175667,57.82519834764389
154,7.430935112284715,27.20542963956086,37.2678345340546,42.133269653318166
155,9.101484075442386,28.25169051658986,37.945657125266735,12.385452775746671
156,10.529990795823323,29.453328928509563,23.6139926506321,-19.98966311998447
157,11.257290748554624,26.73345368488208,4.516590924962657,-38.94245518402749
158,12.390022421785034,20.075160814689298,-8.108309984359948,-49.3054329895549
159,13.159210147669,16.18297964250496,-21.834792449845736,-59.497777056212726
160,13.27258933780513,11.650160207389945,-33.79153158013014,-44.34195849682874
161,13.617212045918675,3.7690357279252567,-38.45860968656598,-12.619736770604504
162,13.591904618050194,-2.588398018366206,-39.23109657764781,8.351284955791925
163,13.493617627183085,-8.972691776743886,-34.61393470138046,32.72182236246317
164,12.631589942804569,-15.812231950353636,-26.801638713710418,55.13869914019779
165,11.89876457705077,-20.61050718484421,-14.681130552629838,57.484246912573326
166,11.936247476295192,-24.804295539018312,2.531448061107767,38.38598957135128
167,10.409646356479245,-26.25642933814288,18.24737233229644,16.008502777427566
168,9.262440159846848,-26.31674255541293,32.80594134273906,-3.129409897305777
169,8.110098537740214,-27.457519202318508,40.8076089877477,-32.380745362760535
170,6.3864776779350905,-26.02260221913184,42.3696674851326,-47.91373535159892
171,5.165435781783344,-20.5112362159025,37.58346519783754,-52.20273158238979
172,3.069519158255389,-13.640845824464122,24.16611188722436,-53.316140208553406
173,1.5193668051451823,-8.170448872215275,14.773474745789828,-31.28316448457645
174,-0.2051609458067105,-1.33144794128566,2.5905079156373176,-3.6880070765100754
175,-2.343856677051008,6.399268943836432,-16.442704295190197,24.25525695048782
176,-3.7378258780872784,11.939057982160191,-29.28501524212425,47.24905643619422
177,-5.449017897881276,17.31941840993295,-36.8234473394532,51.5976465103322
178,-7.109549436757334,23.059384125692304,-39.93696105104482,53.55414516079327
179,-8.779605836646624,28.369270716638766,-40.72547033437149,39.436440939875865
180,-10.322215697637148,28.342451963607346,-36.11342758253613,8.605707937609623
181,-11.405873072241777,26.94505533463416,-22.59267255617124,-19.06871667644191
182,-12.572660856825678,27.668527048339,-8.36475236503702,-50.01823355675879
183,-13.585872297529022,22.111811656254304,6.966224523092024,-62.51492171928112
184,-14.092389397691475,17.09308009987126,23.759309168519398,-50.54414518543035
185,-14.31666624790887,11.757948082818984,36.38035254610895,-38.1427517141974
186,-14.435711063306371,2.829954932508372,40.84563953445559,-20.13988579965644
187,-14.350609161274406,-2.377752541292921,39.18091232578081,8.780084343333328
188,-14.117294074558233,-9.668068329170184,37.36167042966463,31.91176049391925
189,-13.59880910965785,-16.265316515448376,28.19485158147927,48.87755499146806
190,-13.162803206278111,-20.78522429490249,9.763543271054004,62.73625549240751
191,-12.45149767744715,-27.03484166752241,-4.204376561900062,50.59941982830424
192,-11.28028967688897,-29.292771848896336,-18.187174492654776,18.7525696148532
193,-10.32516606668196,-27.59837010944057,-32.5595974596954,-7.082438121105042
194,-8.72272628859264,-25.85506867260483,-39.60664513742813,-34.31047190872414
195,-7.044956481744521,-25.035796588704216,-48.57605127684565,-58.00891597062946
196,-5.488976946479852,-21.339407439571914,-43.10911833866885,-59.046494019748025
197,-3.619663309537827,-15.4503906857135,-25.164464427613893,-49.03952932923585
198,-2.1083865691553,-9.0042014468645,-18.543925720036896,-31.70900540388993
199,-0.2186843754293477,-0.7018542730174886,-4.04593086143359,-3.401108010236385
200,1.5710264718286453,6.075407338137666,15.346453332925194,26.015134141480303
201,3.213076418862329,11.557460766862278,24.711068585036628,51.50670762186292
202,5.076534615166565,17.217050691727763,34.116509475412386,59.74123276085447
203,6.52948244794834,22.29902302452365,43.14659017754002,50.41379732107998
204,8.11885028783945,26.625297505348044,41.84644879532152,36.81073617534548
205,9.350437703062198,28.14656735741892,29.156574057759823,12.403220446154592
206,10.350827725591898,26.8674648293063,20.360308545670705,-21.49708551355252
207,11.456981426807944,25.63353398186109,7.580526143475254,-48.09250916984638
208,12.393391421087928,22.017351342189613,-11.299542233700777,-62.9459526951523
209,13.476647049262285,17.256480791789272,-24.24551397900996,-64.30679380190395
210,13.805756802019914,12.179111217222273,-37.93157273483121,-45.48539453640751
211,13.702903237093324,3.2882409112949063,-42.81683145490297,-14.817207472991868
212,13.99132249576337,-2.838496726712947,-39.52510573485597,10.906184670508082
213,14.157868052110643,-8.367680744236623,-35.60443450300954,31.07027438995101
214,13.611256318085909,-15.762518867261406,-29.100347552300263,44.10526119724455
215,12.666814819933734,-20.049347821573065,-15.809112016321706,54.59458430961331
216,11.742930096274904,-23.89398939565899,4.595022638506634,57.724535158165054
217,10.675978439948947,-26.39491129596081,17.79038865937673,27.236207895687585
218,9.476161793010078,-27.35755302331745,27.806450848278477,-8.727092129448465
219,8.153591617131951,-27.40211876357398,39.29992188310098,-31.69766046675068
220,6.998914022505687,-25.815990045264243,43.391573238696765,-52.25460253988604
221,5.228244040296659,-21.7477666746604,38.46842091191775,-49.912436823591634
222,3.29143595008236,-15.448656130720336,30.16870886126981,-39.99504687766603
223,1.7338334443497845,-9.17711875428904,17.27204057911149,-28.597983565607137
224,-0.2635890035621742,-1.1442883523895944,0.8777097126585431,-2.832186672248099
225,-1.8887140835204264,6.687709203698432,-14.023497270817645,24.60018358785692
226,-3.5408886326199536,12.588251512094756,-28.026859977375352,46.07948683407267
227,-5.428831563128824,18.66421208385509,-37.17653687276379,55.19806546585278
228,-6.812771650376362,23.069849996694305,-43.60603042429739,53.775591950852686
229,-8.100131360874002,24.44809859431893,-41.11140486087788,33.151902522559794
230,-9.42113884839864,25.82302576550751,-33.152518404490365,6.713426001402695
231,-10.8667504516211,25.60247543358537,-24.039104497253906,-16.299820185779026
232,-11.92278233121624,24.32618351932615,-6.3004616771559085,-45.2267091208596
233,-12.63144107450853,24.256714689494856,8.940373603421904,-56.53230828445157
234,-13.4254903404817,17.594617277760563,24.596703406867164,-54.23003266891556
235,-13.483643901868165,9.572876631312964,38.84976947862469,-36.64014203041188
236,-13.663760886985983,4.860009166183545,42.18390061999981,-12.209153882395183
237,-14.453455956193466,-3.166219645650017,38.432662810129386,9.177381974252969
238,-14.546943071432906,-10.41391778953698,31.27398476517601,40.5588743299968
239,-13.64235026804181,-15.8251801882966,25.095613273661,56.032825820589096
240,-12.917255659208422,-20.40810541477458,12.424826800106077,53.33333740429953
241,-12.844888003713097,-24.81388577677626,-4.414856139877429,39.65712925359367
242,-11.49856647163142,-28.68227235468612,-18.81208218466145,19.164558078194204
243,-9.536398921206,-27.59776926312088,-31.036424861138585,-3.970499719192048
244,-8.292001504299378,-24.844872670601944,-35.373995878067035,-31.312001836239688
245,-6.874416090357272,-23.0302296889422,-39.911162490525385,-44.58399218978866
246,-5.330698577805379,-19.177029880642067,-42.93128352367967,-48.52915178239073
247,-3.735719195698721,-13.135264124005287,-32.984258632264755,-48.81917390094896
248,-1.973501487816975,-7.983979739263987,-17.436009841758278,-32.29013944619874
249,-0.099222492549643,-1.9039002337606237,-1.4178959335508807,-2.340267128339292
250,1.668220863347642,6.614379210587231,14.435515872476572,21.03434713134629
251,3.5695116876256634,13.23812259767942,27.606571846095903,40.46358797644461
252,5.294700966570076,18.74071128461969,34.67525712634051,62.91702973942665
253,6.4789385487729305,23.078470382638898,35.8943052800837,60.76473748666831
254,7.936796234788574,24.51580941850864,37.9170788557044,33.71495801741003
255,9.4029841158316,26.34565774158329,35.90938380303214,8.918617782261208
256,10.475539861420003,28.28536272606084,22.031675237611125,-16.52806586261886
257,11.774227685212566,26.474811027513283,5.27699975309406,-41.68973236372949
258,12.844987083878294,21.36445442962281,-9.211079093419812,-51.08051115583203
259,13.041298337381136,18.15888079231468,-25.144779047788237,-47.16964161921078
260,13.797696037956657,12.805211020928256,-37.71706066953175,-36.53922224810594
261,14.650617266616903,3.17169692425216,-45.25703932006854,-14.783817220310084
262,14.320608489186723,-2.8343256551942204,-44.41410220013995,12.274103468923386
263,13.787501550977083,-9.309726782051598,-37.71177950437777,35.60970219815772
264,13.126740560946756,-16.729194125152844,-29.935823955005617,50.48482296062775
265,12.745270754669887,-22.11679935113466,-12.566916636223596,47.06210505798117
266,12.357395383217296,-26.684369963666768,4.384665218232385,40.59860864294296
267,11.123872153781576,-28.287771044050714,16.22382460541894,29.141213710472584
268,9.678895985746069,-30.738343172171422,30.949186809225463,-4.990553641890983
269,8.249193250165547,-30.254236635493957,41.80089309495588,-35.83902602121361
270,7.004357095138346,-24.322433246169798,40.91449450376104,-54.4602726907724
271,5.392328818221699,-19.71671441010767,36.309248703335925,-63.023198964216135
272,3.442385142655212,-15.438303853240882,34.3571010520277,-53.62284336266748
273,1.8415140583396687,-8.958778501907886,17.382966175805905,-33.96076267540502
274,-0.0702717892891087,-1.1562740716171334,-1.2495741822199309,-4.683937232880453
275,-1.887433485870588,6.007284792976975,-11.3808040112217,25.266671109487103
276,-3.335435472167162,12.465330765152146,-27.636574473093788,50.30763598679096
277,-5.059907327134823,18.67162481451612,-36.12773806764972,62.11516926328295
278,-6.887502076486143,24.05988477633815,-39.37334536844264,50.05854234495382
279,-8.392227426666011,26.90907157468365,-41.34821618531896,35.49250993097303
280,-9.428584225176223,26.5539127776662,-37.45029685451709,12.86877553911927
281,-10.948983935113006,27.871098238080947,-26.217702343745717,-21.19137426366433
282,-12.082441143917634,27.234732476476665,-6.561744446234116,-38.48231449846389
283,-12.093003169227105,20.325291170703625,8.47775297854264,-51.51918800465501
284,-12.749366813062691,16.50716697891744,22.96503069952746,-66.44394585937971
285,-13.853627846596936,12.445908881630205,34.41361893357089,-49.98899397376408
286,-14.304861984052309,3.4415079007503664,38.88518682885001,-15.04154885817934
287,-14.022561624939016,-2.439583459151038,45.02191113159245,10.138491941297616
288,-14.213151833791471,-8.768518800010668,42.02027095978201,39.23501946552187
289,-14.089286725262482,-15.655365339754894,28.256644418117503,62.157209831023465
290,-12.706684349491304,-19.755239731513317,12.187877259216634,58.76352445699649
291,-11.582824153909767,-24.67432189291208,-3.216479893296537,40.38591230582552
292,-10.38636542469078,-26.0619409037339,-18.25496776380976,21.9446889687124
293,-9.476570170769264,-26.52870055150572,-32.946487453637815,-1.568421171751652
294,-8.39562687811241,-28.485133165082573,-39.567280646684026,-32.80365011687809
295,-6.455551970640045,-25.02241597048885,-42.44627829930562,-52.255055992500274
296,-4.969445993143381,-20.88735373034018,-42.67125908316473,-54.75835478270256
297,-3.4038396576956984,-15.643542353362704,-32.892361360562745,-49.20684689392056
298,-1.6821135399522973,-7.663726226737708,-17.121040462467818,-31.972241229213974
299,-0.0918867236086953,-1.3221203488413948,-0.8499938836552019,-1.976069328223275
300,1.7952644338038226,6.776173397059438,14.569141031905474,23.416464683430604
301,3.489083831442485,13.410098096575666,28.2266391338253,39.2332043740962
302,5.0340862244879645,19.01996210346533,37.76993967639183,54.24898322943864
303,6.820641863586388,25.83635090691496,44.282394934795605,59.066194346017255
304,8.289600154281743,28.723249369930045,43.94945503597643,39.12052698438674
305,9.441672990455118,28.87396105198445,38.27207601842469,9.52974902024107
306,11.046506136403876,28.029482913505944,25.738409292324437,-18.61488395921606
307,12.047927723819155,25.474741139758407,5.254116913865801,-43.30664778855862
308,12.327519122778083,21.885497655941208,-7.723030633875567,-52.83745299839848
309,13.53929050386614,18.268283749512197,-20.544595764407404,-61.8458768292694
310,14.317308837863038,11.651244084767086,-36.63712824053789,-50.994455389628456
311,14.238703603880822,3.685027916263607,-42.51800178124512,-14.847635493472808
312,14.310364156876403,-2.357831809096524,-40.2466998176788,9.359370607638084
313,13.688542713472089,-9.429085419554212,-34.928303230473944,33.72583545895304
314,13.418777883226085,-15.522998656685331,-24.67537912134634,54.75775655315101
315,13.07802462143809,-20.864342071336296,-11.228688509639484,54.602373605060166
316,11.523447765661786,-24.8955446479265,2.170200652083281,41.13061691037001
317,10.96981747596692,-27.24941587581316,19.52043787173045,24.30577848334269
318,10.441049325734184,-30.15429016047233,33.32635568309024,-1.5714740048260865
319,8.545916321374989,-27.64622584029757,40.76312960733048,-34.40520875352104
320,6.8945521776554415,-23.78060085598395,43.56386402510111,-51.056143401573536
321,5.301740077083196,-21.361223107271144,37.60830868489938,-60.91513274512363
322,3.5603143231946888,-13.51401817412784,30.170734295184047,-55.39223410899376
323,1.8417661553494329,-6.972152758264656,17.455031232498868,-28.144350299616235
324,0.0841336245571255,-1.7232411053732903,0.646211666389263,-6.2912285457287
325,-1.6251155981749434,7.127667624065907,-12.48988904738644,22.12061634095608
326,-3.535476522365116,13.956448133844788,-29.344420653087127,49.13896535303502
327,-5.097272959750171,19.37200788322707,-39.28274835872958,52.19293260057111
328,-6.519442894199983,24.044774153055187,-40.78988041307866,46.540812089368046
329,-8.408573036018424,26.296222403616863,-45.811926306583246,34.48302770342525
330,-10.09091055947556,28.21409263089663,-37.4778237652597,9.35090981884514
331,-11.085400095028035,29.95647250578668,-19.08883464122755,-19.149600426188044
332,-11.962153220384607,25.663907137844035,-6.829809095645942,-45.84625762740416
333,-12.94648790206702,19.96109032153072,9.440802709245418,-65.61656946256244
334,-13.066631291697377,18.33960810674307,25.20676487483388,-59.94731630134265
335,-13.35818622575107,10.651359952375516,34.44029018724723,-36.680281192714574
336,-14.562607230987396,2.9917495308618527,42.332679263431146,-15.259014577127346
337,-14.280637542271052,-1.4092406791428402,42.17503920881563,9.849959757260876
338,-13.199351923013182,-10.095756174589496,37.17081600170605,35.95523429559398
339,-13.269541919893072,-15.98448921526142,30.50012589811968,47.63973120292485
340,-12.858760922676538,-19.13808879055432,12.787216148596144,52.79401165559284
341,-11.637444957917978,-24.97737125775302,-4.2635002857373365,52.66852788687629
342,-11.186660774607844,-30.34950457185641,-17.200191439219452,24.69158005920872
343,-9.922679912284366,-30.40079704743312,-35.02200109862588,-6.833399978815578
344,-7.824133810661351,-28.54454372008377,-41.02444301515061,-27.632023873776237
345,-6.923772016864859,-26.104597825451947,-40.30277723691643,-52.28725000506711
346,-5.221953521894193,-18.68736402303148,-40.065968885252914,-61.95510705904144
347,-3.1134389411759003,-13.019547843128748,-26.68270731639313,-54.211971233857184
348,-1.870003467848619,-8.939437592253398,-15.402864494934876,-31.888458164868556
349,0.1222669822313946,-0.4922834621033871,-3.8806185265748354,-1.7218627115844356
350,1.9937854715144567,6.38144815683745,15.508073543840965,24.163839465176352
351,3.5116185198126004,11.96710606429724,27.040752267221706,47.738465422601166
352,5.419360101552229,19.201938842964864,38.01043969621878,53.86449444187065
353,7.200561849508631,24.39314210986595,45.06778455816084,42.66893094920579
354,8.667254387349203,28.19970991978289,41.19056533880576,33.082417395205994
355,9.66392791187991,28.98515515227882,33.15342272237922,14.179147504542016
356,10.742408277387767,26.056962537173604,20.77226278788885,-15.798796423239764
357,11.868062588156135,25.895460183477557,7.41794522791497,-37.81418213345296
358,12.806900454947026,22.95473495432907,-7.749162315573358,-53.56296135853154
359,13.693110940310362,15.792313213115447,-23.07859149782689,-51.47740152890174
360,14.089976973816192,12.243114830901504,-33.82920076376058,-32.53491519621275
361,14.442049260685964,5.445584303110991,-38.48173660539214,-15.134389149041908
362,13.917200666541248,-3.311437414537977,-36.96407582629263,10.8906243035608
363,13.427778046547246,-9.102308141568756,-34.82354523083268,34.0653283009442
364,13.686043871043694,-16.164680470042185,-28.87454926917553,45.134153100097365
365,12.5908754135844,-21.60281573119209,-11.98486296732517,52.101503541112606
366,11.994320998760486,-25.683343036182123,4.191670618969965,40.59568402752439
367,11.326270311259576,-28.782555163470988,17.02098116670004,20.428636526834453
368,9.38938544533812,-29.15157443088856,31.135954531964217,0.4988841697945645
369,8.360508888539698,-27.252915837209,36.47534883561502,-32.883133283691905
370,7.002222030640041,-23.014774296848827,38.96868693886927,-50.91940345643934
371,5.263096307072374,-20.17217077637042,37.41610640145245,-48.406105686063256
372,3.7793175036877074,-14.115897671735183,27.583641954934592,-51.92084786717987
373,1.7803965737148246,-6.036636520517277,16.5394796810574,-34.2638362312332
374,0.1224679205442953,-1.681633846990735,1.0227728911977465,-0.0292585847705595
375,-1.5212304612932712,6.330423992780197,-13.406295074220909,26.05198679968339
376,-3.471811225299461,14.215523366263367,-26.27556237648787,47.92299854092073
377,-5.1510572500365015,19.009247599221453,-37.02029236766021,50.95133202987597
378,-6.741490880473975,23.186567734812343,-42.08496542435796,53.10384121167704
379,-8.225370822289733,26.823004505313293,-44.88605943001494,46.76420881523967
380,-9.747465291655317,29.702863649888968,-37.07692202211501,10.376363813347268
381,-10.868330567402154,27.42010077629584,-21.34653403753282,-19.25708542472768
382,-11.618569218405357,26.713796099168576,-6.848229641960643,-37.38115559777356
383,-12.653880859816129,25.32429408164262,8.346052046611476,-52.854120627795055
384,-13.455740529068862,18.56238874607243,24.88765388570664,-56.81839137419894
385,-13.61281608299032,12.71833250812324,38.44248342804076,-40.28466532621502
386,-13.33049513154674,4.908589067449611,42.88853744142307,-14.465903322836652
387,-13.430498817025182,-2.9084454023195576,45.06326537123914,7.728318764511584
388,-13.739642257215564,-9.460812556968447,43.14324895729533,36.1089011020668
389,-13.450571756687168,-16.584419551189967,27.887911158880343,50.382576541125104
390,-12.676792845811178,-20.357978238091164,10.82701114117117,45.50766867665425
391,-11.689590865162245,-23.55343415873358,-3.661777142621759,39.8802441811813
392,-10.638405345758656,-28.174358366604796,-17.60600729455018,26.318924260859035
393,-9.519986720375528,-27.850897823398554,-27.41694753475804,-2.84341955957359
394,-8.338471953460612,-25.446122399551317,-36.47656997872491,-33.51240549844738
395,-6.500770433701291,-25.21274245413406,-39.95491874639083,-54.35834957528493
396,-4.757499636195462,-19.7713555556511,-34.47611140525805,-66.54341805174613
397,-3.3922001552527945,-13.882865541160754,-28.24474662747798,-51.10468561326627
398,-1.4069471005223022,-8.935613072396336,-18.743418099529663,-21.687331416709185
399,0.1738787569975102,-0.4702519479415059,-3.011656420520012,-4.350554498297697
400,1.80152009579524,5.859496859528917,13.35604739565315,24.745483894351537
401,3.837148002822687,13.42664660960054,25.47071023722947,50.22842012892988
402,5.51080053644273,19.46309913618461,37.06667363635643,55.210288064353335
403,7.017889426602778,22.395469588726883,46.86605188634076,60.63429548744807
404,8.296684546073266,27.94130026684797,41.20557643462234,41.80709041406112
405,10.063701229258186,29.981246701296183,29.820174656667405,7.865766796497155
406,11.275061614464905,28.559868441710023,23.072017207567114,-13.805334664682505
407,11.624774408959638,25.526252203697368,9.039505440742689,-36.79076936572119
408,12.688827838344878,21.09648379124337,-10.339809453078487,-54.38116704373715
409,13.402668789110066,16.966553513445433,-24.16209737923964,-62.27360449613343
410,13.560563692456526,10.63120382370198,-32.48499577466373,-44.75089560547349
411,13.989724272092644,4.485838218616664,-38.59492233439687,-13.01321176019519
412,14.403515202606286,-2.064516143024776,-42.24686434210071,9.464923277334035
413,14.588127205087403,-8.722938715270175,-38.178147107328186,40.69743521415376
414,14.266604211009508,-15.127974507508952,-23.395001060672257,63.1477690365432
415,13.354925312673911,-22.06430586622628,-10.808336305354716,61.26118863621559
416,12.111993359015289,-24.238012092363533,1.0024011279474507,44.978485831302805
417,11.16321971510206,-25.72724843261676,19.962789954071923,22.38425759484835
418,10.095955860198046,-28.387213240939676,30.68498748005368,-4.207307222575309
419,8.378987210655396,-26.706986947001496,35.25728972443176,-34.31741171299154
420,7.182546882852876,-23.04999666519689,40.99866967345588,-52.84333188254686
421,5.730950998657136,-20.174335012127813,39.66648746472583,-61.55458557978409
422,3.5030481236417472,-14.560240781832364,30.24158358729983,-52.38176454858876
423,2.04601674193691,-7.07880206099253,16.329866473126458,-22.511870048119363
424,0.3439142018278289,-1.1280916996647647,1.8663987171321423,-0.0879803077991709
425,-1.6786388718483067,6.124821477222213,-12.91925113961952,24.66738256469125
426,-3.147164942713061,13.1679814064546,-25.516458207893265,51.269861120393216
427,-4.921797554365185,19.203289708112607,-32.376182949251415,58.01945097292446
428,-6.63889660280438,23.917270228680536,-38.72729481423903,57.23176149996016
429,-7.983397903067271,26.082560556166754,-39.950966381081344,40.938570713484296
430,-9.355812827843693,29.153169226768117,-31.194285901644434,10.325952403218253
431,-10.646703085843,29.36431260772133,-22.71485284596838,-18.04456434147869
432,-11.59253090558468,26.541425541824538,-9.181712182123192,-40.07608816858192
433,-12.493889580823634,22.879669745323557,9.913234312575696,-44.509431468824914
434,-13.255946662735369,16.637236405358635,22.423579635411443,-48.466398293652674
435,-13.607928746479049,11.18588876324884,32.69741542605334,-44.40027908578577
436,-14.11363714377694,4.738972321986694,38.427259241267166,-16.250611097603723
437,-13.723910484770386,-2.9919579079260075,39.75164264551586,10.948840847304382
438,-12.979102206317291,-9.21240113032036,38.747992575034,40.03982213224572
439,-13.140250772265064,-15.215498278133964,28.18947342313368,62.82444767375728
440,-12.462150706317516,-19.566931255557392,12.50812993110594,56.39939304269592
441,-11.751444058286324,-23.90604967728632,-3.4961412876364197,42.27534943010414
442,-11.331613358339382,-28.365815966355516,-18.11779166600627,28.52417774171045
443,-9.7583713030308,-29.198832058723383,-32.04614146095264,-0.8854887443139887
444,-8.081643401971633,-27.56869190137513,-42.358973643700665,-30.702291950929972
445,-6.481755663498916,-24.51902822177817,-40.85278114162884,-48.9598768561591
446,-5.058828396169702,-19.95589216857752,-36.26359461947413,-58.07817444070133
447,-3.4881301761033683,-13.918449341165797,-31.162262741336235,-51.50900695491782
448,-1.285306936912093,-8.007160415056205,-17.26246690401058,-34.40059384615142
449,0.2513433236817946,-1.7115231304387637,-1.4467820786267112,-4.156193531729514
450,1.817448951458573,6.720410423802605,12.186870796852418,25.247429113616818
451,3.785236235379671,13.114894126791114,25.211291412732862,40.68172370867069
452,5.460540976157063,18.419857766982204,38.06360829223468,60.83246121547472
453,7.233988851029608,24.21920623915048,46.51165429496177,62.047573927687154
454,8.656889462692561,26.78302988260293,43.69764632786973,35.757793026511536
455,9.861059989116256,26.59126662721974,35.33252410696514,10.668062872838163
456,11.16783955021492,27.53062472262081,22.91359074805223,-19.038676123092955
457,11.902155006808243,28.26226145995679,7.149198842659644,-47.75375347470981
458,12.808420276314791,23.62534177383532,-7.808528665510494,-55.18824987449534
459,14.012055395030984,18.77862805265613,-23.114845587718264,-49.64636159100792
460,14.419270948033954,13.471727491813908,-36.77115469443197,-40.83957819282023
461,14.409002483047516,4.027838137189974,-44.46736636416699,-16.727477903678846
462,14.013711133722609,-2.460548598871356,-39.822349981199295,15.4819015748908
463,13.76759252134798,-8.062493460512087,-34.86900544345826,40.940010858023925
464,13.75677446485497,-15.798184009497165,-29.215524369512423,53.14924175350916
465,13.296044456717937,-21.648965888924067,-9.925043033035765,44.38099659818727
466,12.718678279090454,-25.090731213019357,3.18546541453361,37.44473441920036
467,11.460094609899896,-28.485325162357185,14.794973779848078,23.789249307226783
468,9.816298469195315,-28.69448081848259,32.59550376366951,-7.588276635522561
469,8.574764647204574,-24.583007102781263,41.844346761011366,-30.533315352806312
470,7.276615736973326,-22.883141587034515,42.802169546720506,-48.32652562538715
471,5.507484354993721,-20.320450291927045,37.918888112069,-60.72755893668
472,3.9172312721148046,-13.728406333063504,33.875556648681595,-56.500353190645
473,2.3045158021468524,-6.9818049134819375,18.3275216814036,-29.9015885612198
474,0.1846783118908206,-0.7348571048523809,-1.7920401034316455,0.2025958603171602
475,-1.5538852588997545,6.365451162089812,-12.557837585868583,20.39370287206748
476,-3.1801323534482435,14.124735678994512,-31.124218974908217,46.8712497866527
477,-4.826452290580164,19.63540153836493,-40.11385618850818,64.79931855717678
478,-6.439977387409272,24.55877798776146,-40.12712891511819,59.57943513139162
479,-7.94919907093481,28.84012684192476,-44.32421291075116,37.72894776153589
480,-9.208434761815624,27.853595673769632,-34.59000262218706,6.358105453954522
481,-10.748330966436695,24.8118293477346,-19.998834242742305,-21.875927987349318
482,-11.961549712458693,23.956798996181533,-7.854292627687755,-46.1767928743966
483,-12.642224707137755,22.072199152839858,8.10884021376296,-61.43677415659113
484,-13.237976499571232,16.995907466286553,23.167814945963077,-53.17015914094645
485,-13.779167546695136,10.795039631187135,33.930530543414534,-35.55987027154333
486,-13.852783357067892,4.91149879322893,35.708736271325506,-18.319836012259657
487,-13.669130376600153,-2.370868433266878,36.34748267127179,13.481385968262655
488,-13.631948531833586,-9.611685217461854,36.57264047704666,41.95741718374302
489,-13.440739268678044,-15.7113886611387,24.833117030805624,53.79282706186041
490,-12.735110630575036,-22.59620388468284,10.402805228880425,58.59947373920477
491,-11.21964085788568,-26.47382394848228,-2.450848621577279,47.45949888876294
492,-10.28454970628627,-27.0811187924146,-17.703204687738435,27.378102682488134
493,-9.258148024039656,-27.232302271629123,-33.124192072601545,-3.331673045697244
494,-7.423170443737035,-26.90149400456812,-41.7864456945872,-36.70233975489828
495,-6.301007496952479,-24.571534614464326,-40.52553040725616,-52.12981302140997
496,-4.994623223870804,-19.189309952578697,-40.11753922165826,-57.128433597182266
497,-3.267486413041297,-13.039699813949484,-32.63140906850367,-46.79773772709541
498,-1.3915832489801687,-7.215297537823062,-16.01315422584048,-27.70467929542337
499,0.3846378931739309,-0.8987674594945929,-2.857036713627167,-1.9110292870000196
500,1.8554702076362448,6.703403855745819,14.685756608102563,24.1990434270092
501,3.737537887021972,13.037468468502084,29.08252709530552,42.65562636586856
502,5.405256519519753,17.949532997763527,37.53015276136739,62.16030244729336
503,6.842267673819151,22.525284200039096,45.2542025582834,58.03903663031542
504,8.483180158982577,26.842596530432274,39.46694340184058,35.04535749056231
505,10.152325022923833,30.5028563320011,29.320400728504865,10.185373567715033
506,11.31933464046233,30.26488329496351,22.25065507533327,-18.29153759688052
507,12.18731410813598,26.49958676644019,9.086104961446836,-39.9915798017928
508,13.392370892210238,20.236956827387985,-8.801352045579733,-56.621539835022304
509,14.072301590656934,16.18340500283375,-23.745064952542634,-59.975694827749976
510,14.336679337377063,12.750967619025689,-30.710803440860214,-43.81747326792902
511,14.28157690484295,4.460266401300942,-38.04019502122537,-14.29367856333647
512,14.138958000456114,-2.6453097135063217,-43.354770018022464,14.140030527792078
513,14.21672960969954,-9.335781097492143,-35.7992031203903,33.150435631745495
514,13.65396194279856,-15.996489748575186,-25.40789089356531,47.39798260446787
515,13.289409456661817,-19.97793499211184,-12.954921499380362,47.97508895567262
516,12.72775123475003,-23.810452584253653,4.875198873883164,43.0348683412285
517,11.298421872255858,-26.538154721774845,20.019375331490664,27.53138061712525
518,9.844719421576883,-28.49703386987403,32.420191524250185,-6.649391638549787
519,8.343077829405956,-26.817551162385826,39.137083809935575,-29.9051841189812
520,6.864742876708988,-21.928399737424115,39.7418153640956,-43.94394589142121
521,5.353603772487986,-19.253586115500184,38.51787377768778,-53.04841718151874
522,3.923897172246143,-15.179297151897115,33.226864000884234,-40.82552045891589
523,2.231654341907415,-7.552259157324443,19.216298272869608,-25.19395419710236
524,0.2080084617700777,-0.4646798916837724,1.0416435989463937,-4.70411992877689
525,-1.5146283038593538,6.219690233046094,-13.76898985463231,26.498781241059987
526,-3.190659795982356,12.744597226104815,-29.457403455372518,48.288021914835554
527,-4.737992572854637,17.15408484451291,-40.37238632032677,59.01249951108184
528,-6.378411641559069,22.691610660862352,-42.842847802271535,48.44217800966544
529,-8.275452253241383,27.309159165568417,-41.08656165362663,30.987552253393005
530,-9.487238869078285,26.75157294798919,-33.03169669532326,12.653920332626512
531,-10.494201548997808,26.49455593251332,-22.63477941567908,-22.268485887243514
532,-12.077416417250788,26.3657825214832,-7.832819731878772,-48.527789993915576
533,-12.879344822126768,22.018299401364857,10.842830333125676,-59.03480680988105
534,-12.927118293380772,17.18572882477747,24.202377656642057,-53.0023258944766
535,-13.60982544453509,12.095432315229118,32.07644067277579,-34.945218441189354
536,-14.037247640326314,4.68231171385014,36.46598140107926,-14.456902220701522
537,-13.572528190155936,-2.1675294759725148,37.324425217137104,14.470465681526548
538,-13.230437047784108,-8.744282783285598,35.22663397825636,39.21324557417938
539,-13.323343922906131,-15.46192769656227,29.26534529611308,51.71413344037501
540,-12.698579904727922,-21.750154827099323,15.527816999538118,56.029088210991176
541,-11.1278218318339,-26.70635425584805,-2.315515910382601,46.69952811260191
542,-10.343299802083491,-29.381482822103862,-17.544408372774342,19.465445697906038
543,-9.651915521921184,-29.10682989522138,-31.89060024932041,-4.2005500440845935
544,-7.92855277316994,-25.704838983630907,-39.39768276162795,-26.24338066045857
545,-6.451706612137059,-24.338382886900035,-40.08465694302504,-52.271971695534376
546,-4.933506224109806,-20.442788336901685,-42.4020502009007,-53.91304547696018
547,-3.2545694263208134,-12.835294087937656,-33.68362152874215,-43.276193918925856
548,-1.6409571967324157,-8.417496473100982,-13.62362042926361,-29.208271547464392
549,0.2853155136544956,-0.7278692500585748,-0.2031583926946041,-1.1586246877250233
550,1.9954939736744564,7.411685295503958,14.187933552475442,24.38518274290436
551,3.822553853338832,12.6275093872282,29.23773363451255,40.98607104022267
552,5.676721686711971,19.259687449084595,33.42137557163733,54.2727226879997
553,7.175574830131154,23.797702717864013,39.51997243624828,56.72059043749505
554,8.462286541780486,26.93131902698224,45.390565813584544,32.391043182224166
555,9.645197662825012,29.10305487991536,37.44460866500958,4.337867282962179
556,11.143643454850462,29.78890230795332,23.188925931288395,-16.05310940878917
557,12.393192511395682,26.462077354100984,9.424348750942954,-41.399349392706426
558,12.970672447097968,20.6922217665724,-6.612983960425481,-48.3497718635208
559,13.57997140301086,17.20291336471928,-24.00110180541924,-48.17561608163851
560,14.58611544474843,10.72934599987093,-37.21875767284655,-38.72692897113666
561,14.759190497759846,4.489186219057956,-39.5396186092712,-12.320050398784588
562,14.132190599799287,-1.3185445983526731,-35.51132051298737,8.505744652435169
563,14.10303668870074,-10.278557740020917,-33.27644835118008,33.56280973873254
564,13.646021758962888,-16.148833612623093,-23.99323434494727,52.02309652967597
565,12.714511823016435,-19.756832511780885,-10.2622749428283,60.13540039160034
566,11.90123499616675,-22.7136499558128,3.0462415417296143,50.29371058606921
567,10.896430513657831,-25.816505899193544,19.799093699812147,20.90587457368747
568,9.888869539492587,-28.033383156579475,32.8387983832672,-2.5916045295325603
569,8.432282325265987,-26.99617679338735,39.82347693281554,-34.658446643959905
570,7.190535936826564,-24.946779253670684,39.44663513137312,-51.60166243581625
571,5.636941224982365,-19.76786655274645,34.867589290081014,-49.342116243205965
572,3.4593910634921485,-14.427307971906885,29.8303274563732,-56.752577062810815
573,2.0010294132916897,-8.856246506377829,18.38111892162124,-34.98515628168934
574,0.262900099849503,-0.1147197504533323,2.995654450682196,-0.1220137906566378
575,-1.491520238805606,6.456223516471255,-14.00912606602651,20.42739419317149
576,-3.119958173885607,13.05953343944293,-27.941861323752164,43.93788789559585
577,-5.1791782280470215,18.467427165238405,-33.072817576763555,51.57905892707458
578,-6.696143066443256,22.75656756177159,-42.50937342451107,44.142183061461765
579,-8.173456067822372,27.51421453891453,-45.921074376448814,32.35122869420593
580,-9.333288995469047,27.822051543347698,-31.622444234195427,11.585350832836411
581,-10.502009592293687,28.0944738002454,-20.28913611342796,-19.57510674407968
582,-12.153906841363096,25.18800834335161,-6.1825104458348505,-44.88799429674873
583,-12.690098196947474,19.85071893853637,11.549695841564244,-54.01388345957093
584,-13.540703541753828,17.715237139773308,24.6508755865907,-60.01772079973307
585,-14.094200973941952,11.93387563559736,35.53318745393517,-43.3132422671988
586,-13.132578791633932,5.008057825749347,40.48363832598989,-12.10304541435471
587,-13.677145141592518,-1.9306907192203653,48.55955545529287,11.515911135034912
588,-13.856398264555535,-9.321193387271704,43.52663866379589,40.97624676884152
589,-12.833554602639197,-15.76443861568714,23.94576542435607,54.40485340491796
590,-12.697415450898916,-23.198433335310256,11.961291860327036,49.263830316813255
591,-11.76583573624248,-26.796670004617223,-3.0494891737453145,43.54249066480224
592,-10.777610001284302,-27.84685948351944,-18.29370307581121,25.125516411668286
593,-9.6574536717535,-28.66372581834912,-28.98417184385471,-2.660365149133213
594,-7.735935540516948,-27.740404242581462,-38.87236378482157,-31.030465663190625
595,-6.463039827042849,-25.390783872178872,-41.3081534085286,-54.9638749933747
596,-4.774983279094158,-19.98435925528611,-39.81495206484578,-59.399829996664266
597,-3.021312398457667,-13.206272795698167,-34.62186330803161,-49.61201927556431
598,-1.6135779787546198,-7.378262115301368,-18.52967628256374,-35.38263760539485
599,0.2650450480896325,-0.7165087609891998,-0.4922552144416841,-2.869956339685814
600,2.0445684899459597,6.724748903036925,13.466317584372518,30.223994872694675
601,3.812352081446079,13.18738094305172,27.367694373386257,47.60522291468442
602,5.531489113172938,20.11574311156801,35.57455681489228,61.35858049089984
603,6.97221866828113,25.49984492547992,40.14628636945236,57.48753465095797
604,8.588659009825278,28.22635598635497,42.413806699776615,34.10867318273267
605,10.116371407257247,28.603622359225483,35.86956122362426,7.87532104058846
606,10.8092043753677,26.999399458045445,21.829601550563893,-19.273152201352787
607,11.713907698604087,27.399680501926923,5.87330491247485,-43.45438528243904
608,13.344745986474663,23.712903045639905,-8.194674085874794,-54.1042012687285
609,14.081718586676288,16.870776862020648,-23.243918602891423,-55.33940879734473
610,13.95467839333105,12.30682532009996,-35.33413044421468,-44.14951306481999
611,14.14495357654596,4.769475229758427,-41.750375913035896,-15.578904614580097
612,14.25274319428172,-2.2264011900924743,-44.74102072689311,12.796222599510656
613,13.683131865818725,-8.648840781951549,-36.93528837284612,37.49295546540634
614,13.51470694827185,-16.22058633369761,-22.319836838207262,57.45961243413694
615,13.703487757809851,-20.24336965308794,-10.476192578124028,59.299569673543374
616,12.45859702025882,-24.23012308892521,2.670495783424485,40.40399545180844
617,10.950127390442503,-27.166095577726992,19.40620139974635,19.134949529534424
618,10.20533065313066,-27.12798858068527,35.23520546718828,-2.679599489318207
619,8.595566237987441,-27.430493945208585,42.4361690710557,-31.913853538075276
620,6.851995103137597,-23.254840230550144,42.76630805800414,-49.91241766511303
621,5.574125777251538,-19.13088744410561,40.60247229142806,-60.377463450740834
622,3.7764152990212096,-15.278809626986911,28.51777156063872,-53.89737771480395
623,1.8581134790601936,-5.94247598171296,16.470211684776586,-24.64550289441104
624,0.2359342838935845,-0.4327808304924474,4.122591222123447,-3.8552589251648897
625,-1.3599907240741231,5.987478475244643,-14.706331741794202,23.87006535437104
626,-3.190881241617717,14.625571407804271,-28.328118585199263,55.044760500797565
627,-4.965940737808523,18.29075865059076,-37.54974802224024,62.22985595694991
628,-6.613666676671528,21.7382474733904,-37.057266742924185,54.38003287511674
629,-7.99757230263458,26.297019326779264,-37.2692170402006,33.27614496872411
630,-9.135935983102172,30.20543870002075,-35.891734073669795,9.561798636688764
631,-10.7125193264892,30.45500106832605,-19.20032031210394,-17.723786493392254
632,-12.065170302777004,27.50711057864737,-7.025946839868993,-42.32332995264551
633,-12.79111834775722,23.26039573654089,7.150029224265381,-53.71620945193536
634,-12.949193453580849,17.703292945207068,25.454759997030123,-60.73808366467529
635,-13.086029893652269,11.245224496757146,36.86202751894234,-41.52998513365674
636,-13.91627097822584,4.483130793320925,43.06524187912692,-12.2744641070949
637,-13.965102896335338,-2.11565478596458,39.76183240222963,11.0643067677629
638,-13.78752300706401,-9.603350249870346,37.51710920394908,41.18279229709879
639,-13.794271638339524,-15.887538520981252,31.36367277492536,50.96367500317683
640,-12.553667079841944,-21.23414929197588,12.183977473527191,48.481139147206704
641,-11.735385328967824,-26.355509044021343,-3.348838593794426,43.91577298876837
642,-11.219849408816115,-27.76246118170548,-17.05596674601111,21.181366361317487
643,-9.51617143481053,-26.857926282554217,-31.62683300582285,-5.658851790931294
644,-7.908024439324436,-25.622038057395,-39.08682802679323,-32.35309279521425
645,-6.31841134980732,-23.661385061880537,-45.29750931817944,-50.95577877794676
646,-4.64769534457173,-20.58781380681557,-43.056284375206815,-49.20403575457567
647,-3.31987485918944,-15.166045453836889,-29.26401595583593,-45.61510414549412
648,-1.516289426419462,-7.995143232457849,-17.103794769122032,-35.14001158091014
649,0.3086744985412224,-0.2719236056473164,-2.9110612832828338,-2.126131274670115
650,1.935389283832592,6.536144418431832,14.202823272089518,30.146346885045205
651,3.659219542446408,12.55561948731247,26.144047814117584,43.71556628705002
652,5.353386325098654,17.63311179496941,36.231955616349296,50.3242668903622
653,7.184711722651628,23.448335165190656,43.780254049257564,55.30601561159892
654,8.685576563701943,27.995156216212308,40.24596484074209,35.21885083459165
655,10.01225872696432,26.091977730762665,31.50032231940349,3.453900224661993
656,11.602225399491545,26.778273458160584,20.911286555863622,-16.810381710052752
657,12.567155626617932,27.87305413419017,6.464060542284642,-41.86867363161036
658,12.984368974392057,21.723476581313665,-8.3410701334833,-56.44003178993989
659,13.8739726260128,17.74861646764566,-25.73210575509984,-53.53054933676685
660,14.49590614445151,13.104006652353746,-37.89172072713154,-38.24418544854416
661,14.49641692485602,4.491596658667731,-39.31188578541514,-12.997638058890516
662,14.473427723453824,-2.5417089030315765,-40.42834418769962,12.568854118053425
663,13.773877225863544,-9.993203434611132,-40.14344689296195,40.79836382663416
664,12.938078443098677,-16.65364289199988,-26.196202055234608,56.77665414536932
665,12.53159022595355,-20.30887043647272,-10.02925670168588,60.89541359479517
666,11.968540588196449,-23.43062094033303,1.9295214749254228,46.76674395732516
667,11.411198367635734,-26.157981008600476,21.24061607526346,18.3783051020564
668,10.225625980506264,-27.43185125904347,32.25676792172817,-1.985822380318496
669,8.648306693392442,-26.812745916596214,35.062937283570136,-30.64056003645237
670,7.168481984095706,-23.027701443597834,44.022174586356414,-54.92562155634732
671,5.339512953530175,-19.15116379144092,44.132605636683365,-57.127996360562975
672,3.580474288775804,-15.009453885908442,31.30322098681063,-50.4843610282569
673,1.9228868178452103,-7.298373591896961,17.998224502218363,-33.741892168351114
674,0.2870426126955863,-0.625357295764843,3.567720725801337,-0.2978621352849586
675,-1.49436087506092,5.850902137476624,-12.84010245329955,28.017126381873823
676,-3.342543726238546,13.201912858307878,-26.89865648025625,44.248533440235406
677,-4.987567258456693,17.997091530232865,-40.13372045904725,59.37960467681296
678,-6.682365794868929,21.855393249842564,-43.60894784157245,49.65702974938176
679,-8.076448274509858,25.792867826053225,-37.48857717804094,31.50945494049301
680,-9.253214144248886,28.54418280509708,-34.56849528488783,11.855530435648689
681,-10.64417469179898,27.142636439793023,-23.99484294097056,-19.68100419427901
682,-11.90240039247783,24.05909985292965,-5.521040139425168,-35.1804900243078
683,-12.517678696587607,22.10483132672925,8.919429144485548,-49.3124311775573
684,-12.648155057969234,18.561717191442767,22.60348545674969,-55.54581153925574
685,-13.0914181082062,12.243692685519818,35.00751695811232,-34.543443888593174
686,-13.8843530090071,4.710068826544557,41.94613461391418,-11.309302481457053
687,-14.079861351216095,-2.044990803120527,39.22119438131813,10.780836404901493
688,-13.64874923530624,-9.037877713703892,35.40024848074245,36.21067414035315
689,-13.259638361861107,-15.211981807250597,29.92463489628426,51.83887129438335
690,-12.133593089592978,-21.34529754419418,12.3743258521572,49.97756407549059
691,-11.13869630186582,-25.579749662125323,-2.6929059276681078,40.386538845416
692,-10.947468906282666,-26.0924454543856,-16.804214545458308,23.65478558223549
693,-9.862754797227351,-27.68663251678845,-33.5295993545642,-3.4631974087897106
694,-8.4378721894509,-27.16707138918173,-42.55927172780776,-30.52846840626444
695,-6.7984644088883215,-25.42045681956461,-42.08633875694795,-48.768136688326194
696,-4.9286290529307735,-22.07019679048244,-33.454923328123186,-49.85025964948909
697,-3.352731306838905,-14.100532444502278,-27.38928563205991,-42.67264336394692
698,-1.5429683653383108,-7.070066683179903,-16.454939034373638,-27.095663298556246
699,0.2324282771151047,-0.2398781732790667,0.0657030981619755,-0.0745302411978627
700,1.939829340631149,6.337311751595735,12.223775681994084,20.356417531260377
701,3.5655296834002,13.000209466730666,28.99890911718103,38.154456456986736
702,5.252311097692655,19.159220872050355,42.084098796362014,52.16034180728457
703,6.963067565427082,23.34824394374118,44.20344944662247,53.63907232516976
704,8.475695928672394,28.69923566719899,40.38102008420356,42.46826855906693
705,10.05163350314615,30.528760808955667,33.0035105862371,11.650694024765471
706,11.271339812403312,28.76758302887265,24.81216524044612,-20.644378096283617
707,12.082802106872805,26.494003246780267,9.369200988981902,-42.83098399698065
708,12.827176483346191,22.53763314884236,-8.766897200212043,-55.58882337445175
709,13.464240504804366,17.621925189926515,-22.245949864097383,-46.01082009511629
710,13.618781369168572,10.762417860876669,-37.35368911616206,-32.974607347980054
711,13.862733239321642,4.598195746949386,-45.03204415356595,-14.508868687453289
712,14.204374522081707,-1.6942069624128635,-43.57619793848244,15.592838111588208
713,13.56953770641303,-9.424981759801083,-40.85502360857663,36.51989042104469
714,13.13863380064504,-14.478599534717432,-27.71541498236729,59.26197478969152
715,12.974421210520632,-19.69141936873075,-11.952215109788083,64.23430221953822
716,12.492980677669948,-24.4431512637957,2.026120431543859,44.44911518310255
717,11.689084045834534,-27.467655183399984,20.224796399034854,26.697969939981704
718,10.211629264789735,-29.1059328496176,30.794033127855982,-2.7685704767663992
719,8.849248352812538,-25.69608735111251,34.52871618930112,-32.33062237848753
720,7.0278960805817405,-24.397102074672148,39.11260176777796,-45.89665565272662
721,5.056243053902108,-21.5928700817567,37.77317915266849,-56.53493715024524
722,3.713216714903865,-12.83193091447174,29.502994200136527,-52.10387568272563
723,2.076064911731009,-8.560407370824578,19.873503985008934,-29.101212489384125
724,0.234128376560875,-1.4808704558190584,2.6469658846708626,-2.1959160788119334
725,-1.5840105429615503,7.475792856291264,-14.382494085893995,27.50072128764441
726,-3.3355114255318767,12.232054373231222,-23.88114634555859,46.45072377409088
727,-5.025756538760106,19.78608266617084,-37.49618565008405,47.88315027694625
728,-6.73025537670901,25.67592625870475,-46.67060025388309,50.19784376545249
729,-7.937912090997088,27.51062481256577,-44.65551371158836,39.11639143276079
730,-9.044300765739536,27.789623964286875,-37.262999137507904,8.231979512171165
731,-10.802081237887704,26.850636845456396,-24.016750302741457,-17.38293247180627
732,-12.287423442269755,26.719699509513703,-6.503555838427928,-40.15101667574163
733,-12.826024120230612,24.88129154286344,10.49657762539846,-58.38554622108131
734,-12.9932161489819,18.322095729020475,26.017202447234013,-55.97175524650447
735,-13.000602304951371,11.567962660669764,38.06587576182301,-34.59935655346999
736,-13.65905386887107,5.41327531936804,40.42682319483538,-12.80507504156958
737,-14.254349700045168,-2.5845140283990986,38.98335954209688,8.09516664640978
738,-13.732115010468988,-8.847099404286837,37.06686791062566,36.191974567378566
739,-13.308864963253654,-14.942884843083448,26.779707868417063,51.21013941107413
740,-12.16041738281956,-21.28779692706803,12.730352791547377,50.587999839634
741,-11.412061375926896,-23.750291323086916,-1.6476949326324757,45.51841556669024
742,-11.36276083535813,-26.02792328308124,-19.538277018855297,22.62391026721889
743,-9.533588383395454,-28.09721389525976,-33.711816172637555,-6.249433791659612
744,-8.056036992251393,-25.958561609586468,-39.5514247146948,-29.179554665201067
745,-6.609319255121136,-25.041408503607727,-43.01478612581741,-48.92830308103839
746,-4.546935922168359,-22.12673076521014,-43.15118619079658,-52.67657684497863
747,-3.302843896837203,-13.587033876619444,-31.71583082233974,-47.424160944683535
748,-1.5993968637576472,-8.011666029093249,-16.155310935276248,-28.95916658126771
749,0.1520871887569228,-1.583205338076823,-0.9244053854918092,-0.7237934915428923
750,1.8534627089261448,7.053490789014632,16.147149006141262,26.100314770772457
751,3.825260541211719,12.60758078820345,28.58187336338869,50.12154521660341
752,5.512615830985396,18.570443183670704,40.37446395126153,50.74572667784014
753,7.067485566090909,25.1564114720336,46.41121437227321,47.24281034455089
754,8.409615245601799,28.14622951655383,42.99255248999452,42.17786791475737
755,9.726899190650784,27.78832563326614,37.551125993269125,12.285279439414808
756,10.867614727141245,28.3457568874569,22.861790052063952,-16.94964142436038
757,11.699211039117015,25.57927145137728,6.730312043347112,-40.98899924504258
758,12.379857584367528,19.53035968101676,-7.132658466323846,-65.59059590278412
759,13.038373161430172,16.71497679839149,-25.93442021940882,-61.122920411748055
760,13.665899843366788,11.870335858215183,-33.9502560254914,-37.62867756570995
761,14.220233009691128,4.218741164540461,-34.03455629947348,-18.027693410875145
762,14.315745218286793,-2.5223053227045966,-36.38826574052109,9.99931600304808
763,13.91601174708012,-9.241662118711702,-32.34846017188738,35.879542593356746
764,13.73684057204946,-15.93772174571268,-25.907153761491827,52.646483483402335
765,12.868249080523128,-22.0295666111233,-15.485039781161504,56.49748005760193
766,12.33456283875512,-25.972754530451084,4.671175053591469,38.462290447996565
767,11.600628885581044,-27.44341970336336,19.25730645252133,21.38415118258308
768,9.208094806393092,-27.175919683784517,27.43743619433008,1.389284347762441
769,8.12501036738604,-26.77679253182077,38.59984727970277,-27.642772986037016
770,7.033553457223206,-24.745043814329392,44.26607117248204,-44.70669495607399
771,5.199601163672469,-20.18354119350897,39.06788837130898,-56.76977936314324
772,3.887670529674324,-14.3700683001598,29.395539533967167,-54.76812033118949
773,1.8906192488498164,-7.122233896701118,19.14457010935348,-27.86029451244576
774,0.1148356622552455,-0.6321731691323293,2.3797389192268383,-0.716959712372045
775,-1.5456474840818828,6.709234695726991,-13.65015736920668,22.91958814288228
776,-3.379072089170677,13.994543098280246,-25.23159949965975,47.23691991393389
777,-5.089240644150095,18.72507486683594,-35.70137709347,63.894012331604245
778,-6.889581536059268,24.32971042441318,-38.64924728345613,57.28393837554904
779,-8.160515380411653,29.00651692757083,-40.67781167477642,33.28225518034742
780,-9.065748241497886,28.19906761583252,-33.8889690404576,14.470286615487566
781,-10.57231826010161,25.29572008749801,-20.33252627485308,-16.433856309105977
782,-11.958875412632436,25.715236428297885,-8.7018750802863,-43.20937463389237
783,-12.386720057685013,23.51568084177165,9.835164994769912,-43.64476095805003
784,-13.38758118972055,16.217144567968035,22.61882099085051,-51.83138388477892
785,-13.891357581359102,10.897401977627167,34.28362671555897,-49.31714982765152
786,-13.40642449765278,4.519709606941433,43.47639875014738,-17.654450278572767
787,-13.9733571313447,-2.9532676916862783,40.64511578911879,12.38932089752052
788,-14.39916119332412,-9.103895613432542,41.55926807754168,39.31002001485649
789,-13.904027813639177,-17.287741330112794,31.808372221322315,58.03683820019978
790,-12.820515641805969,-23.061308113088103,11.54065373344838,57.88566468972931
791,-11.298392917867886,-26.88926434367625,-1.4170110549221135,49.39036679651508
792,-10.33164242338313,-29.088723930580045,-17.521221525364126,27.043110308002724
793,-9.60022542410843,-26.886920212362558,-32.52723409509963,-5.099858154160756
794,-8.085585418215828,-25.286131188842266,-42.70068675055245,-30.16615919061041
795,-6.593775063411215,-24.357157092909887,-47.88671552861433,-45.64646958400408
796,-5.222336216774579,-21.687375802937595,-41.399709222476304,-53.00376697096908
797,-3.0502226548551903,-14.760653116767088,-28.391074688058325,-55.36130528068316
798,-1.4715305279657969,-6.507240877499953,-14.7918653816987,-32.18097405306435
799,-0.1440278505307333,-0.9916795817371168,-1.7519646715836643,2.111179189783797
800,2.004421636224152,6.254009494044624,13.855639970046468,21.83149607365158
801,3.713355946326601,12.600461541760922,29.06807312015553,47.34825467112023
802,5.3561659158676775,17.797313871146628,38.094193757547146,62.21886363291742
803,6.979289329948074,23.337241733295517,43.42439327370448,57.07363009418805
804,8.386375908053424,25.43647708605204,43.64969480562832,40.27246127759827
805,10.20441379463557,28.316548024139934,31.80154692703581,10.74472984892236
806,11.286485919304596,28.38442814296934,17.720305633971293,-16.861026173637583
807,11.86609474171928,24.33402867107833,7.569741458520184,-37.64917244455864
808,12.561327804760708,23.593923168808143,-7.6341650024505725,-50.272500135246446
809,13.17829163787087,17.618127134724944,-22.05587742583248,-53.231742512482015
810,14.161120340892012,9.485851410456604,-33.27720710768608,-39.28515931508082
811,14.587921240790934,5.825550991137277,-42.76011551065676,-16.57592161998764
812,14.545118408730673,-2.568782072964069,-44.685481219744815,9.39084709538838
813,14.1578147555324,-10.21677962849401,-38.17782585507712,40.75331534754878
814,13.34637737205253,-15.492976687658029,-26.44744467381588,56.87917929402465
815,12.994391950672709,-22.52393958099856,-12.383356420775726,62.49296466778651
816,12.283407143847851,-27.21714631785881,3.418112155952713,52.25176248323987
817,11.263383068262783,-29.64483657256108,19.578162846546547,21.581610537490636
818,10.018103457270968,-29.524005586258,31.858851009801583,-3.1440854823795235
819,8.274749341790482,-27.694383528188155,39.25709165081207,-29.77536772374151
820,6.759487728978598,-24.327860226470648,44.79735142390746,-55.39083680783551
821,5.363426795980374,-20.042597975444775,40.21443591954176,-58.19826512961117
822,3.851648213758722,-14.285474498073429,31.758785144884317,-45.41554294596244
823,1.913913954538316,-6.594948079523874,21.37722688404847,-26.126681856812866
824,0.0294442838973054,-0.6471416405127002,-0.2316946514861229,-5.385427760431412
825,-1.5082930298065094,5.951298105054889,-15.328797041433065,24.897841551577585
826,-3.2184839403590786,12.55587529484444,-25.932918343690744,52.601938021449314
827,-5.02391875463627,17.28523297422589,-36.93395677890794,50.57726508848828
828,-6.8503782228190175,23.00450670506564,-42.06235932339951,42.87245038804758
829,-8.279436299492772,27.830899903539372,-42.34603334545773,34.42684116174678
830,-9.685005097155909,29.303348600458094,-34.818127809590806,10.80063979266015
831,-10.834707783531712,27.66719984735289,-21.914647723086546,-17.516032416708185
832,-11.458622833412846,24.084292259768063,-4.977403711072384,-46.50272019819568
833,-12.69204075705602,21.136945979202665,9.537382310607882,-63.53522923104356
834,-13.301206712774274,18.469525897804942,22.43288957340837,-59.74991192210655
835,-13.432417959435952,11.885893291278308,36.66822931783554,-40.00999134206177
836,-14.18981636171702,4.13324334535082,43.72798322354356,-15.476826934422206
837,-14.515093958843863,-1.8652750748105973,41.99284049240214,10.054535833714908
838,-14.456207597236698,-9.057870282811791,36.84608188962011,34.253964834435465
839,-13.61832811966633,-15.675381197661636,24.976830132017312,45.7547942308629
840,-12.385188523184752,-21.16132491347753,9.96303026881651,49.53205189788605
841,-11.880374442690936,-25.78821950181805,-1.5974324471403634,42.90127575981387
842,-10.827249653893888,-28.124476150564533,-18.06601417033926,23.824006992281284
843,-9.311957561783402,-29.52698204017588,-32.23647912285605,-1.235612860733454
844,-8.442460546425536,-27.44495737885836,-42.67817434770132,-28.843060846042132
845,-6.612248357924727,-22.805386946641647,-44.22432765772192,-47.23060371695283
846,-4.636109876721093,-19.497815487581647,-33.391553411108134,-53.31490456165193
847,-3.574394349318027,-13.388473272373176,-30.404108314642144,-44.154975081575685
848,-1.6253138507845506,-6.465394348223072,-20.086077249749906,-28.890032117966257
849,0.1868500668438173,-1.102212179699109,1.0090655440758385,-7.940574132006077
850,1.7457385841589712,6.074443964531838,13.906244717364416,28.207564520807864
851,3.720715597169601,12.809580105179975,27.730843564002043,48.46478485991975
852,5.291755442063277,18.345164442856685,38.86661319868063,52.08048588562088
853,6.746684389539951,22.519113749452345,42.814905295027074,58.32605345536104
854,8.322530409107458,25.267262216159,41.67389021256941,38.5775587973003
855,9.844336855399888,27.276348604156283,32.26033773551285,4.726204602568032
856,10.916588821541607,29.273102851612972,22.51410631560861,-14.84650755414441
857,11.973417364577926,28.86702290066455,8.659533088994976,-37.622915297462896
858,13.004297967302591,22.770321517439243,-10.113970998468176,-50.07299931806028
859,13.641643488947466,17.04320517096039,-23.698558538251973,-51.33126379834721
860,13.783089507451676,11.651709881222814,-33.08772063107199,-45.55944685948816
861,13.482008268211302,4.333640915408068,-38.95971664963781,-13.1247338450803
862,14.003580245524065,-2.202920317479311,-42.23492603278635,14.012427442443368
863,14.070824639385137,-9.144483399966704,-38.54129163998084,37.00980371136484
864,13.173329438773637,-16.111810441880152,-25.507679875332883,59.24587276211423
865,13.383172416628897,-20.99768717722964,-13.09382407141254,56.05958800594726
866,12.815399460103436,-22.922191273712087,1.6896328667954776,45.73384019205241
867,10.989007366320038,-26.225456877522905,20.356360158217853,21.40049792445097
868,9.9335742546441,-29.35802188381604,33.69585653598517,-6.1691911632824485
869,8.604406334475243,-26.476279960849297,41.22639518447602,-29.04097413812724
870,7.0720626826846456,-22.50775471102452,43.16793070661947,-50.24061219298346
871,5.553356754197012,-18.86643141828245,39.93910674771121,-52.94485300338784
872,3.5224083736111425,-13.042099088580471,31.796946752698886,-50.81529586012039
873,1.812027923113419,-7.260838930711998,18.255594814962024,-28.210070375018404
874,0.1125923150857488,-1.1083137797950258,1.826325911889512,-2.609074741275436
875,-1.7172067398651052,6.366614879165354,-13.577967101036052,17.995676117338917
876,-3.270219643989549,13.39716952011804,-26.208999080507567,47.64959604585238
877,-4.928367333693132,18.736179883004752,-36.271971044600775,53.054124881966345
878,-6.868037705355164,23.26451257990675,-42.58301646478623,55.77262306839202
879,-8.669387599604306,28.28316125652009,-43.52677841002463,44.5902092303113
880,-10.007708158712376,29.736686337221272,-36.70675697035051,8.768223141099952
881,-11.13691038799334,27.629724850699404,-24.958844784478742,-16.44468561026588
882,-12.078073523206513,25.643922596246284,-8.56584699216188,-39.729381399632985
883,-12.85426866893158,21.2893485362124,10.315028374305143,-52.50952074272936
884,-13.698531666847884,16.954683363569984,22.75729475526947,-53.07255135481864
885,-13.905050780203965,12.050048671863353,30.71309624590623,-44.643447530225785
886,-13.889375848665622,4.320681929370949,41.54392705547065,-18.351082981963373
887,-14.209901860332138,-2.72173706992362,49.22303616102749,12.048218420673948
888,-13.591228940662404,-9.409649102938602,41.284462400815016,39.44755218144019
889,-13.140723129509752,-15.213109022356548,27.45520504822281,60.131705389731
890,-12.738304655047614,-20.313759642752306,14.276564830341613,66.14857120467514
891,-11.331957591329228,-24.278335369715933,-4.694670472131179,53.30895487939597
892,-10.655052884187173,-26.773724607465734,-20.94099975805034,28.235660872144763
893,-9.416063592620958,-27.622988501104373,-30.064019395764035,-2.329231383794649
894,-7.824599789662898,-26.542883897414868,-36.35584787296057,-35.516672588138135
895,-7.179451812037769,-24.795025134215397,-43.257157748689,-58.89749415405913
896,-5.3258869226783645,-20.25114173577731,-41.77904280625808,-64.75360391588038
897,-3.12481594343808,-14.586602542334733,-30.85490114366576,-50.21996784604335
898,-1.6878029424251508,-7.51449585733917,-20.00612989509591,-26.7267173703076
899,0.0206540206063436,-0.5296334834174559,-2.187744799580741,-5.56570160568981
900,1.749266186312525,5.460992936078583,13.592382038522828,22.809214146266186
901,3.4773505494313213,13.430191715179715,24.01813237383726,43.44155599587748
902,5.384855354896899,18.441566961521858,35.44793390971108,51.15972369297788
903,7.082742029189831,22.161621333366384,41.597087704417845,57.569189543067296
904,8.554195441799493,26.84078513402073,43.48620861085806,40.77879691846874
905,9.701683026130922,28.60625725979389,34.76643626991313,10.250120577811686
906,10.849528285722045,27.987085162039875,21.35089478924715,-14.853733510417896
907,12.21046892259892,26.0783442577158,8.18969646864025,-42.28418813036615
908,12.972027127527326,21.156180314886115,-8.544185087191636,-61.52306007552716
909,13.596594352107786,15.407842681758666,-23.307118012751744,-59.44189316745815
910,13.84618127268277,11.118310484374888,-39.38774025992825,-38.37505549956268
911,13.83771361404979,4.669522068144943,-47.03883039838957,-15.55625036836318
912,14.734739113022442,-2.6632804470655174,-46.0011538180579,10.241704518804
913,14.384179661757116,-9.18427360124133,-38.79352782972819,37.21361624540668
914,13.26944119234031,-15.478112844575662,-21.41029774180106,51.35638644313804
915,12.946579397722417,-20.86483075556316,-10.334159909383288,54.57442992507049
916,11.90044319494973,-24.986988896479488,1.6261261464401289,41.0311237969886
917,11.081556602392084,-27.85130877633128,20.026511947953168,24.929753378072743
918,10.40960723855096,-28.830716395385025,34.42721432171356,0.238358905477753
919,8.589260564844153,-26.985636701238946,41.545688080123455,-34.081539361331124
920,6.654120284032615,-24.240293863422263,41.298744854860615,-44.45360762584369
921,5.020460528189688,-19.90603557843769,41.77179001591367,-50.30006989462822
922,3.499447418122145,-14.39556875326798,29.88903146172015,-50.042985367991605
923,1.9316138345748184,-8.300729010345094,13.726319597260954,-26.212828265164944
924,0.0315840632238177,-0.7413101155307231,5.509115368221501,-1.436870961783825
925,-1.757400424002299,6.350298609443598,-13.25384365707032,26.0329262446694
926,-3.3742254412436523,12.771378089528298,-26.436249677110936,54.44033694680297
927,-5.0206798022854855,17.57011213865917,-31.791315498651784,64.20077664468317
928,-6.56901136819306,22.04600769981153,-42.36149156682632,52.485520919327314
929,-8.179987436299598,26.615395017531227,-46.20882739280205,29.138912290132
930,-9.693494660413307,27.352037848844702,-37.76465918168788,10.069786899364315
931,-11.048807847730131,27.24928795035976,-19.6081612459775,-16.668967894326357
932,-12.00187393089618,27.064772766896567,-4.709270107200155,-45.132503019351645
933,-12.551733678577875,22.018001795690907,8.032389042136401,-50.68256603664386
934,-13.330122115186896,17.630759376701462,25.59537628231237,-52.84598114181392
935,-13.805857463001304,12.411816590360104,35.79612796748734,-41.624932896300606
936,-13.74294622988964,3.410853296972164,40.37484545493089,-14.021542477438516
937,-13.68520360910952,-1.968828971472249,45.78300104863047,8.097554975272374
938,-13.922489222095464,-9.039768488850314,40.53831257611455,36.30483290019163
939,-13.67691126767386,-17.672057409470654,27.83868452980596,51.55022795340346
940,-12.647446056123954,-22.949317894418527,14.266750466704252,50.9542529152169
941,-12.374682826526625,-26.91519895654528,-3.733063988742288,49.79322764941901
942,-11.439968982909704,-28.785889977745683,-18.550056003286954,22.80241612834993
943,-9.68163442819241,-29.417163801917923,-30.8893189999626,-6.299270760714762
944,-8.565852831099619,-27.50628288810367,-40.13306364216714,-24.213450881487237
945,-6.553153772152655,-24.06242936695708,-39.68676709657666,-47.53676476685291
946,-4.830914430904159,-19.360296841941818,-37.2918315403922,-56.63420804997304
947,-3.4403080497140763,-13.857314130917077,-31.004546658164145,-53.04760220757362
948,-1.4981418977131398,-8.418576154970651,-13.697719583644355,-27.54220541205723
949,-0.0241546594515966,-0.280358982636244,0.0630706154215658,1.4453442454159813
950,1.834752224967815,7.037695166075537,10.830304962551054,17.27321719603333
951,3.639364957274666,13.885175062486269,29.57588004275385,38.954885503073
952,5.159778092487613,20.08496195764656,40.54856839930199,46.121467244424366
953,6.826166839271536,23.59960331356069,43.292569342253046,49.61209299411348
954,8.140761815224323,26.46261396333921,46.50860136551637,42.433396858051765
955,9.507032248659016,27.023189658307277,37.87211747850506,7.087636450839
956,10.903926609673364,28.142087318078666,22.23548007423597,-21.95351464369196
957,11.828070744202703,27.75885129568087,8.874369346562162,-47.17026698204154
958,12.610616905481947,22.262063409771145,-10.495845172530608,-58.25763076175144
959,13.472078432023409,17.586614301628288,-25.426045304834588,-44.48773353200932
960,13.566833426153607,12.079729876802958,-33.91038996699808,-40.83392836113126
961,13.475079576006465,3.987888565176036,-44.30572823939383,-23.720927566213504
962,14.022161139106174,-2.3537716303108027,-41.24655436828107,12.473305914087632
963,14.228068933683971,-9.053678650854636,-33.243468575955376,34.59347363882489
964,13.57658755866214,-16.65978969067328,-28.48276059300042,58.72851181502665
965,12.257553856969023,-21.625516829868506,-12.374265750457198,62.316912825897816
966,11.786904824175508,-25.87702948322476,4.901503590910579,40.15159892426709
967,11.211760624344606,-28.92212419023963,16.601238644949262,26.085098271368224
968,9.285248141546615,-28.82710238772961,27.71242417018766,-1.290374987953328
969,8.315410816407166,-27.01518573869725,35.98245679863703,-35.45119732675721
970,6.9209767106967774,-22.904687454678424,38.714284962154125,-56.31631116904464
971,4.903558458461703,-19.588051453138178,37.260804699228174,-61.73120766611919
972,3.783044555315428,-15.460330773186795,32.65950468159008,-47.73002696178446
973,1.786595481531549,-7.143559620464657,16.795893265670202,-31.753742035404684
974,-0.0748459507503866,-0.5692632622958627,0.2418645851375913,-4.547303696252129
975,-1.6264451857005042,5.607707578144982,-12.417810621026549,27.198839140008204
976,-3.643152637596359,13.214599549803095,-30.17244535078953,42.30282671113491
977,-5.011306732847515,19.40762930829078,-40.03591881394823,55.4181714725637
978,-6.692589754504297,24.37544203931975,-43.19141792864866,60.59074432543275
979,-8.40501010391381,26.69750896133519,-42.544353559867886,42.18873485769564
980,-9.542582893633153,29.36408339820628,-31.6392075024487,9.843719857572978
981,-11.014943624082662,29.30706552384436,-19.73615015348878,-19.67869861068812
982,-11.914572173462147,23.89495964746311,-7.858571266106082,-40.2580740625308
983,-12.813785722697505,22.931418714311803,8.305484504853666,-49.28949912333974
984,-13.91369494425635,20.333360560340225,22.977871238928856,-52.82776057239698
985,-13.800772577360476,11.398926216385007,34.85200975775297,-45.02780512273512
986,-14.29734919474322,5.023327321066972,43.09006368088194,-15.667401691913255
987,-15.036518912691465,-2.5014825812722847,40.76657936120319,10.841433826114551
988,-14.537732180191597,-10.03807617029088,32.19769546579664,32.07469997102453
989,-13.820162356085348,-14.357217750659402,25.98393660630063,54.25694774903332
990,-12.5694687739433,-20.937536622035623,14.805951330130483,59.4805152036588
991,-11.592869256875929,-25.53228167390625,-3.033391329514416,43.86952543550342
992,-11.174246298767684,-27.11760397694161,-17.688446152769757,17.7854089665243
993,-9.731979282825703,-28.39778890773414,-31.25629303644746,-4.348145780307277
994,-8.078280876547069,-24.883013740703973,-39.53591174715439,-30.86524410624497
995,-7.008418326942774,-22.92513748036617,-41.07222467893553,-59.110463664448616
996,-5.39362188101768,-21.70429020691517,-40.46468320345412,-60.34322200915904
997,-3.3234038195514586,-13.47641211262453,-30.39838850167689,-42.47523608820848
998,-1.441095007912736,-6.849412804604071,-18.070095827968544,-25.918900777131057
999,0.0357344388467026,-1.1661889125825835,-2.4029735076182988,-5.405650205948405
1000,0.511967481559891,3.4980831288742515,8.141949067880859,12.264911575758008
1001,2.051693403422431,11.864812788471802,28.37562383613883,44.7863244331773
1002,3.9360027895056326,17.519359525367594,41.83729213988623,64.99981566759503
1003,5.452107454743651,21.790885515533912,42.72824579779635,56.683446872439646
1004,6.713463448650984,27.57010456307208,40.15901935150892,38.82454748004275
1005,8.087941184767633,26.308497805872776,32.677483384326905,9.83548909362787
1006,9.670892965862954,23.01831150259289,21.006549615825463,-21.67031832904217
1007,11.086852501181454,23.105067357065764,5.2921922805921895,-39.99917029623464
1008,11.898258010323232,20.70588845008598,-10.913134658718604,-52.79244354212756
1009,12.043790622000756,16.059091354500538,-27.098819055162267,-54.85630636832616
1010,12.351523597392829,9.364006276464352,-38.25595883505503,-40.67821734197628
1011,12.76193010331923,2.902664810467286,-41.31335829017917,-20.67230092151067
1012,12.47249622967422,-3.519849287355328,-46.39345516257481,10.605223152608914
1013,12.453911974097934,-11.337299084584856,-38.13683963907488,36.63430609540728
1014,12.64447827377819,-16.569059704765777,-23.486684138951205,41.95779449741917
1015,12.028848032472297,-20.927490822479054,-16.121748825415125,51.19570428133238
1016,11.17939320314565,-26.1447023919809,1.815687912098383,45.42853781969529
1017,9.982127592195184,-29.294983300143485,19.0776395956384,15.978332319578158
1018,8.448015420077127,-29.280024003447124,32.85877087499057,-4.873948421435671
1019,6.920121210958087,-29.08244101545324,41.36069242495,-27.590745528267234
1020,5.269680161683482,-26.29745514611477,35.35149040161241,-54.754701802743966
1021,3.960307912835333,-21.491990993995387,34.802600115808445,-58.99519717591238
1022,2.440572232526165,-16.827629980822167,30.14059194338006,-44.50982658215662
1023,0.4924578770232983,-8.935909033013104,12.622985465007332,-31.066582003809344
1024,-1.1046758160055106,-1.9408510588500576,0.216770692054979,-6.810189632725269
1025,-2.807659460685045,4.814541903807822,-14.00698134592949,27.533469251645784
1026,-4.710538387530505,12.185202587150798,-29.81468090081125,44.294009074808855
1027,-6.311220836638313,17.169079062666697,-39.09588236119407,50.42611638317476
1028,-7.726050644743736,20.889102416531387,-43.60449330620622,52.494914957347646
1029,-9.06489792743605,23.880539693547234,-41.56030045518492,33.12963037418422
1030,-10.52135808723142,26.024973572282303,-38.74306836094229,4.356282698031919
1031,-11.837816135013329,26.313761119099127,-25.193169667189068,-18.119270226101435
1032,-12.930931910419533,25.326634729289253,-4.591009034774743,-44.11780722509821
1033,-14.120610434885748,22.01228790250389,6.005827286434851,-60.9450315811323
1034,-14.849381102941152,16.090662417948806,20.02884129828953,-53.80599474962583
1035,-15.119672775886102,10.691553258946897,31.01097251798319,-39.20964169852141
1036,-15.012377811275655,4.043923732552685,38.19211423086245,-17.596641045264732
1037,-14.650559962877196,-4.191468839517256,47.88707456139719,10.385046671420696
1038,-14.895735436959512,-10.271807865208755,40.66609488352288,33.80429397273065
1039,-14.729224229447029,-15.96415142652313,25.881121394711958,52.10681803350417
1040,-13.875785751447438,-21.888211535069782,12.329231530795369,51.007461749916274
1041,-13.213662087165176,-26.1068609545614,-6.159239606173742,39.35637517331497
1042,-11.748708880674712,-27.47968293578333,-21.088523824379536,25.75890731970594
1043,-10.237296466424596,-28.582381900373548,-32.39302298185339,-4.145505706715085
1044,-9.406647193141907,-30.421005731069272,-38.06090791412589,-32.56725156364746
1045,-7.967587693745372,-25.910449868774776,-36.63803959596453,-47.73530372868072
1046,-6.280899522164873,-18.966916598186344,-35.94674923844241,-50.70893439634483
1047,-4.729802684802053,-15.525609088972487,-32.14907267235867,-47.13786255720152
1048,-2.8891198730070755,-9.35581841114481,-20.98433969147527,-30.959652002510666
1049,-0.9441100493895648,-1.4618593017394232,-4.0919812417055255,1.5434187523478613
1050,0.7675547344033475,4.907141964514267,13.46521941035826,20.173059749403365
1051,2.4567295245806235,12.321308988884084,26.8500800877996,40.14428436673097
1052,4.192513062072976,19.073241784794845,35.80077468385571,58.46148769742513
1053,5.754877017167928,24.465949106679545,38.49434946682686,50.24626749331219
1054,7.413743345458897,27.22364523964916,38.57251864096406,35.73664269720621
1055,8.892369929609231,26.511065945891914,34.209466189166506,8.007483145353945
1056,9.941511992308731,27.233115028618613,20.184746958222604,-20.82930152537392
1057,10.694741429399985,27.407965003416848,5.254680886671849,-33.8703390828332
1058,11.742478796753405,21.59697253367949,-9.487217837064236,-45.740465389382734
1059,13.091118682708384,14.344893799702277,-24.24343233070249,-50.80592755815087
1060,12.984113407278528,10.125443917265784,-31.84884999429778,-44.64343686351822
1061,12.459365672982583,3.775479840152912,-37.14190616271389,-19.460744707678717
1062,12.945392469666784,-4.237726175525495,-42.10022930516243,12.99581857648991
1063,12.759027687395246,-10.797997571978158,-38.22427228387005,33.48863436013198
1064,12.403695289689496,-17.045599750999827,-24.090980166165537,49.587214649349335
1065,12.071725112553397,-21.25509873770261,-11.92737933708213,51.88913076589961
1066,11.092082829980429,-25.27280245486054,0.8282053981338322,36.278958869358576
1067,10.442903346517596,-27.765452323254976,20.03326559825655,18.150235344040997
1068,9.15360719562159,-27.329315124169625,31.071355514170136,-4.0645285572099965
1069,7.360662005705308,-27.500348660569216,37.89590001845954,-34.31797221334455
1070,5.981315188150802,-25.64146995422197,46.138912521222665,-55.34186368197334
1071,4.160811513187582,-21.176124257910487,41.86258824637025,-60.93102776033811
1072,2.470818739882816,-16.053008375796708,27.86275098911301,-56.329646146755294
1073,1.0763559884107965,-9.11828525906185,15.568965069536716,-32.681604283458
1074,-0.7730541812234151,-1.8041448725452935,1.0212839917203382,-1.0944986254444302
1075,-2.606483788269543,4.719730976750725,-14.66153430081522,24.006686393767268
1076,-4.303775665961439,11.451178413836717,-27.90905011329596,49.43614934572906
1077,-5.97492309199788,17.333929691758385,-41.91203879558634,61.69945648501198
1078,-7.439022449446384,21.224370149790047,-45.10883899769851,51.33296000376595
1079,-9.055941673155758,24.534000887518232,-40.63985199696526,37.42985570215114
1080,-10.467359263023354,28.52560268498109,-38.86398545963857,13.485316091389905
1081,-11.41069124473688,28.95601549163439,-22.30361437698957,-22.422721547510264
1082,-12.371704918772592,23.903821371362028,-4.064189071312285,-41.63792933627701
1083,-13.515037378013403,20.742195329267812,4.565934988313529,-53.61344781369917
1084,-14.705069356024978,18.386970099764767,22.618986825008506,-61.19280751232327
1085,-14.82163728908563,10.879710361831712,33.95706225265894,-40.8540689495776
1086,-14.551116738710334,3.05341811508697,38.45876053018856,-14.167710454014925
1087,-15.20253165306258,-3.15531977138744,44.68525401388069,8.465029582655916
1088,-15.026850077923882,-10.56377949173293,38.54464623356307,39.471991903086746
1089,-14.360180316623882,-17.41895514267344,28.66004809372589,59.37401116213732
1090,-13.995921624531547,-21.372493502144607,14.148962272288372,55.16483608960607
1091,-12.966999477378522,-23.481378957450037,-5.21184757179708,39.06458690775435
1092,-11.882941964828206,-26.341206109711493,-17.91085976408249,22.17554819342604
1093,-10.553014451180388,-28.74253409178345,-30.28760932264413,-2.800469240737584
1094,-9.102158410713855,-28.43022179520904,-39.2840302345312,-31.896999674875588
1095,-7.802469249876594,-25.407509014684365,-42.36825311390294,-53.36786889810992
1096,-6.05356156471953,-20.36684641716147,-44.07789150305143,-58.911539746238304
1097,-4.379712157009635,-14.901657920860089,-35.75534357046217,-45.98412444243968
1098,-2.635020002349848,-8.835997174964177,-18.132075594128764,-33.646618250095344
1099,-0.6183983071123293,-1.6988663078282116,-2.2856494494908475,-4.03417418265326
1100,1.0492906526351362,5.016645431487632,13.351961374069106,27.309537215079217
1101,2.7149381895051192,11.75991667881135,29.865582238544448,37.5026512881559
1102,4.467123933959556,18.91600904426377,40.35928511045586,54.81865296550859
1103,6.13065067964817,23.94289113985724,40.434023916738624,51.35969156588635
1104,7.667010155463686,26.08757283515752,36.78768890044921,34.69894030951309
1105,8.882352777503911,26.146670061558325,35.63782608657675,14.610250260411703
1106,10.089879787063182,25.257552069973823,22.787366258953625,-24.54664938524093
1107,10.954530922500451,23.83200860857141,5.332433533886615,-43.02534166888381
1108,12.04567873295855,20.17854054186409,-7.142343000108667,-51.81494146917885
1109,12.934490345070117,15.76742283098156,-22.729752972018105,-63.90543376027654
1110,13.154546489544371,11.527114697820252,-34.18534612215444,-48.07993327361055
1111,13.897783321138377,4.265907673916445,-41.77188765155279,-14.78079748334767
1112,13.568000835170096,-3.8120109130868514,-42.228490061278535,12.234821199283942
1113,12.900303314312623,-9.75353852459648,-39.58071418610962,38.6461633184299
1114,12.56460873657852,-16.27777281667659,-30.51749474831104,57.63448803711162
1115,11.836377997037744,-21.62293211100132,-9.78455983402182,59.240145794608
1116,11.628159936065458,-24.130298848168422,2.160745109097661,50.696883288275785
1117,10.462331407195052,-26.882148176037845,15.761426131709412,25.62183671429102
1118,9.255966838942186,-28.27456415758297,31.942046661043605,-5.80306524063235
1119,8.02932580138804,-26.806431210067785,37.03641758027516,-35.01747153983888
1120,6.018681322817429,-25.059878130076868,41.16427387349995,-59.561657325083615
1121,4.561854179468355,-20.454733487329577,42.13130647978414,-57.100003149688746
1122,2.895446503743188,-13.610654481902202,31.65562386203237,-42.36781287040867
1123,1.2420282407529155,-8.571454287027336,15.64269935714583,-31.842174741247614
1124,-0.5628101428746959,-1.8774356050262213,1.3364312134426657,-6.120696082664836
1125,-2.378554617105692,5.179179202220439,-15.505274070442283,25.474459663661943
1126,-3.9957434538036978,11.994162304014026,-30.5236969567286,46.98335972652603
1127,-5.878976750731454,19.789988269683818,-39.29617435051114,59.47605897996527
1128,-7.3308486710511716,24.023069131239023,-43.68588331360843,51.1694664434699
1129,-8.696218952140953,26.16166326071925,-39.33474937939718,33.40455823963384
1130,-9.84785919834576,27.715928145695216,-31.698351074819584,11.114082191545094
1131,-11.332598161764508,27.32058183533445,-22.38943636637396,-19.11295932479697
1132,-13.114420689896178,25.111168356575035,-8.234526896681928,-37.69599860991457
1133,-13.41321120149314,22.076527821021045,7.240133029747994,-55.738405469257486
1134,-13.786129567261924,17.734147113498693,21.997675933368555,-63.50324110656493
1135,-14.643383801617349,10.82912247285458,31.239020368369893,-41.80965629323782
1136,-14.227754396221826,3.99173505321869,36.43067300099119,-15.33002071149349
1137,-14.060594039823629,-3.197165029345342,43.38291774513618,10.697973014612217
1138,-14.35806047027654,-10.632562579147816,41.692220101554085,33.06022385166307
1139,-13.995545814248544,-17.38881308721284,27.052974485818595,49.84110054774101
1140,-13.52763482635055,-22.20062910514571,12.073523317390936,63.01990240435589
1141,-12.71767339607959,-23.808243766458872,-4.262646802285417,49.87941877462709
1142,-11.360312713075473,-27.275227823487512,-21.620730743225977,24.35511446471264
1143,-10.039613677723535,-30.6167795855572,-31.448769024990725,-3.556763623058032
1144,-8.727172471808444,-29.102287252835595,-35.23341532284121,-38.2649325406519
1145,-7.330362879297354,-24.46688893176361,-39.37037922257605,-55.670565074040496
1146,-5.774212716534748,-19.689442941418747,-39.82638365551247,-58.23565783007962
1147,-3.8937250389290057,-15.20769805998043,-28.93106735497713,-48.2704472253663
1148,-2.23141856764596,-8.435120264643956,-17.44846558827612,-28.02471607572079
1149,-0.5160477660383549,-1.4180026017265843,-2.931041288417873,-4.013880319060263
1150,1.3712623724131845,5.049156660979861,14.644343254731211,23.239000557075087
1151,3.0975596659918665,12.451181313860616,23.361590901236013,41.864333071695
1152,4.788644788128295,19.25309778174505,35.580116972357246,59.52957816040725
1153,6.237782573285585,23.506863711230835,43.61597651251032,58.92670165760319
1154,7.712469002713988,25.191174702699755,36.98483292436868,30.18996297739068
1155,8.978066053906332,27.33532512145121,33.38241113287404,8.388525759777622
1156,10.335069401352484,27.68570237302265,25.093655126654085,-15.474578038662912
1157,11.800570613378111,24.32699655894612,5.770756946997608,-45.23862650099363
1158,12.007537892523032,21.379974005497388,-9.7793904894952,-56.2096249002152
1159,12.316042384485629,17.53625518422723,-24.506133152380244,-56.45780737445784
1160,13.43781439995837,10.540875999547096,-34.40301075517891,-46.60692571356958
1161,13.760243706384244,3.701346446518983,-40.96418448537406,-15.441026985862663
1162,13.866340370992477,-2.897440908376666,-47.60321661108901,14.522251872396737
1163,13.861278804758513,-9.979453908692449,-36.69113617745552,36.88581822112246
1164,12.736075664785858,-15.941770457709936,-23.4228883232654,54.9126020447784
1165,12.05887627145148,-21.01807052184995,-15.544301831148914,48.13974919784505
1166,11.782217615611444,-25.41883706101362,3.762037611724736,41.57740709015707
1167,10.119877628459108,-28.558079600607016,20.5058420063433,28.60662182913893
1168,8.959150101964951,-28.00264101333505,29.759513779084955,-5.87980935088035
1169,8.077653628285589,-27.318133953159304,40.8550340695374,-30.89803287433097
1170,6.298654524995072,-25.52257168068536,48.112774325062674,-53.31869772578102
1171,4.86927386799016,-20.26766170011615,40.56804974098668,-59.34451213796001
1172,3.1951933829486734,-16.135439353801303,26.093746078562617,-48.339205201798
1173,1.481529088418938,-8.165464247818818,17.39571690505545,-31.71229682291232
1174,-0.2481397882866076,-0.7399703147266337,1.2043571336771492,-0.6446010245754223
1175,-2.2177704677105794,5.222590996519102,-15.561390281790407,24.627817335900545
1176,-3.864414754833888,13.937866291103091,-27.345007014614566,47.56542527300553
1177,-5.640744441805509,18.57416662630567,-41.991958242336295,62.09555708497919
1178,-7.366626855390677,22.359849639658933,-46.148189876311335,54.70358378591391
1179,-8.666981757982285,24.670229808784825,-44.825591116004944,37.11458905184736
1180,-9.674007254316166,25.55288705262228,-35.99397020294873,6.81562718697478
1181,-11.207739881631824,27.395576964230717,-19.943242517494586,-19.472157942607737
1182,-12.859146627218252,23.96490006823205,-8.827229217106833,-34.87231420722583
1183,-13.344163903032497,20.91538222811505,7.979545030284498,-50.616772400961054
1184,-13.395150315177489,18.99917036570241,22.62679827491684,-52.47761967467159
1185,-14.15080412574298,10.877972127475914,30.19648514077835,-38.91965588191943
1186,-15.174501327805046,3.6535714810179343,40.2254120083162,-18.13761654982318
1187,-15.057026496057915,-2.2889828253109954,43.37014825397455,10.619533188892092
1188,-14.087500291205288,-10.61176942417842,35.44405115170957,35.060034672884285
1189,-13.4609585217313,-16.446141205978165,24.881920646091203,43.93232123564394
1190,-12.977644260571653,-20.78782579608469,12.200506304789997,51.06746744151405
1191,-12.21699392591472,-23.892847689794507,-4.675168658470284,52.06109917580488
1192,-11.682235009733631,-25.713306181727603,-19.186232090484737,26.42846349848241
1193,-10.330233680363564,-28.61632742368965,-31.74673359868939,-5.927871523173053
1194,-8.11809246327175,-28.65425660757137,-42.14433438527249,-31.776253608846677
1195,-7.05295814360943,-24.31610884014572,-40.969665250347134,-54.28497511383557
1196,-5.631539177400555,-20.413845571067213,-37.5947420026514,-55.83190906369782
1197,-3.6829788223985815,-15.193060830569266,-34.85436071183358,-42.26962744550474
1198,-2.0385017509743197,-7.473230681232053,-17.791797336142736,-29.05928237462831
1199,-0.1456712415265428,-1.2896689353874535,-0.6798332272846892,-6.772001027713486
1200,1.4246792185476806,5.922959594809072,12.07561298584278,22.693322898360748
1201,3.217066413748398,12.76641108854892,30.4296596726399,48.20551530507282
1202,5.005110937514928,17.25532425445681,39.817738699447546,60.83647612161985
1203,6.564104379984656,22.916377546838703,40.27310688416128,48.69845755417509
1204,7.905005250964677,25.59293537537542,40.38979527612446,29.80775580245063
1205,9.05679045653551,25.24641584230312,36.15070477171594,11.768510086963031
1206,10.377490277213838,27.109452556199813,22.360646869073207,-20.607163168218904
1207,11.585337359925688,26.126695154549,5.780395510517337,-45.38446698727421
1208,12.735315191942846,21.173075027723826,-8.681778291684168,-49.67377152355039
1209,12.945277522159358,17.22774759255617,-23.74324388839977,-47.67829003713268
1210,13.04937040445884,10.972699399033443,-33.954616760665886,-39.35813804703048
1211,13.903720936839363,3.1832485349441413,-40.02362087845995,-15.791286605412097
1212,14.20319699815991,-2.7347163500739957,-40.11837143875346,10.451722781971512
1213,13.754094081461515,-10.111209410718402,-35.87372458067512,35.63030302900779
1214,12.95729370949266,-16.238329564002015,-27.347500800436137,55.0056343314518
1215,12.364289063343676,-20.07101153134317,-12.031326326427916,45.88062191308427
1216,11.521209563144112,-26.303989540846032,1.7194842580074692,38.385821705413946
1217,10.31707326926471,-28.594052707033825,16.966633370159798,28.92592661664776
1218,9.389481406282812,-26.89862442412277,31.765935899884425,-6.188407380144781
1219,8.19658599261129,-27.565999808678956,42.2100713137088,-30.48676938869403
1220,6.533518945540436,-24.66405301587656,47.017827147132266,-44.13632251659556
1221,4.766867746747266,-21.03247555997268,42.11591769067945,-56.40398115310609
1222,3.293183826158838,-16.13922147156154,31.04965658605397,-54.77213223257104
1223,1.8033394217450225,-6.951691868333455,15.490017585931128,-31.63324621269294
1224,-0.1706208057994445,-1.4353638096645227,1.0187426443080767,1.0781742296976518
1225,-2.001120416917729,5.732309023072503,-12.764393281076991,20.37432566583948
1226,-3.568752565066916,14.308340821231011,-25.72010227118517,41.19358249349261
1227,-5.31769581510116,18.7251719206638,-33.882628754741745,59.70200899811152
1228,-6.956136580684415,22.75664283543938,-41.96530485275616,57.514522099260375
1229,-8.245220111577964,26.914785788201694,-43.917640132096494,42.07006574745765
1230,-9.697513711870217,28.774828356354647,-36.77227236997442,12.258286242918077
1231,-11.098935453904687,27.117922378457934,-25.094460456493834,-16.671554086965443
1232,-11.795554491193798,25.527208418788177,-8.554230010507126,-39.13142904545202
1233,-12.497697165768386,22.38187280604143,8.903625749929233,-62.69568527129695
1234,-13.600878020493385,17.06993700034991,22.958029780638757,-60.82266396664545
1235,-14.59117720627819,11.78558512817608,32.543881266148674,-36.58057116537748
1236,-14.886434555862706,4.0620851881221824,37.38380785020309,-13.780118582515115
1237,-14.79411546801748,-3.0914534954408737,39.443718642586646,10.89200409236082
1238,-14.139413998350392,-9.102834428066217,38.48134681477222,38.57939534361731
1239,-13.18331583334475,-15.437097099816128,27.142902273586515,56.80726398473553
1240,-13.153170511072403,-20.41150863034773,10.74756326620627,57.355898623144185
1241,-12.048947752318329,-23.74532835749733,-3.210897347399623,49.34115455282972
1242,-10.662729165349448,-26.9287093037633,-20.76536443927398,27.073219943405547
1243,-10.014600799461276,-29.419974574178468,-32.719507151480684,-5.330196084024465
1244,-8.220840130421493,-26.05694097076685,-35.45503697566983,-31.94239746839912
1245,-6.738947542755341,-22.46043528041855,-42.62692227588377,-51.08612748761516
1246,-5.453668827949514,-20.88908938162831,-43.23331915311519,-58.073162263504855
1247,-3.616346632069053,-13.299116717684228,-28.08383326175772,-51.19643260116936
1248,-1.8682004447168763,-6.441961763746349,-15.812585600586315,-26.436307124641644
1249,-0.1403050022038314,-1.698802871175758,-3.991261450677485,-4.357130261334987
1250,1.6144741262955904,6.263354503504161,14.445392732091022,17.639422404502056
1251,3.530905315008795,12.598677352591722,28.65944768776808,47.94687546105479
1252,5.365845865593428,17.47233521035014,38.88602511581212,55.64752950715911
1253,6.813529029841448,22.77420426714457,44.15310119082278,52.17263609558722
1254,8.162369268416114,27.796954061372617,43.55519331051619,40.25600104000159
1255,9.635648412017645,29.04419327757114,36.40111251050439,10.069161379300112
1256,10.722082697238989,25.604749681179555,23.221025184530845,-17.19641114593469
1257,11.81016316188152,23.93171236602757,8.075977131435138,-38.97091796223958
1258,12.833434519989057,22.31430316213323,-10.27845134339077,-55.61774662241987
1259,13.40606445950266,17.742703998612342,-25.495750907645743,-59.176064763228624
1260,13.93236942097542,11.541925170108698,-35.26331171612128,-43.68376506704908
1261,14.06178341401636,4.398178310238563,-43.5502583474663,-13.912998434041585
1262,13.994053081132051,-2.4282411982892427,-44.7862903655714,10.437434194508567
1263,14.401312991614644,-9.781921582271709,-35.82689215207574,33.26467563637243
1264,13.830522687660164,-15.646167076421987,-27.261894501758437,51.41900452127993
1265,12.479054722087769,-20.888508164823406,-15.082083949818298,52.79039075054197
1266,12.295577140759915,-25.323649486631894,4.859139063384646,45.12769537110535
1267,10.95596484447617,-27.011905854527186,17.136622752493167,24.087870798435237
1268,9.236116427250522,-30.008734106436805,26.806095970996463,-2.0864063968215305
1269,8.694564854912983,-29.108459468390947,39.15915120506452,-27.80662312215918
1270,6.97434725415917,-24.34921983714503,46.33785815677584,-51.09588742795722
1271,5.204297616221993,-20.837565274867305,41.06403620334095,-54.34077593076972
1272,3.484202183465697,-14.453266041202824,26.34706207468571,-47.75893190441002
1273,1.5747882611231605,-7.77271767227262,16.907080435410535,-33.65947551338968
1274,0.0832086803900438,-0.9694841298135088,3.015773118489051,-3.027589895236815
1275,-1.815633670773309,6.412980770742706,-15.941084370131648,25.84674166927016
1276,-3.5045704019977397,13.04169623721964,-26.65649400406892,45.993357071450646
1277,-5.151428385221379,19.23079760708424,-37.29729477739329,58.099699444808266
1278,-6.783669874980888,23.366660476710308,-42.94173906416199,56.74499641558441
1279,-8.075756796167184,27.60311283461175,-36.51105505626492,37.762782965713086
1280,-9.4031321552784,27.461144079608687,-29.62021889145853,8.117999708153093
1281,-10.84940644076994,26.59688706128549,-21.435122171965304,-18.229487047829025
1282,-12.394171306415842,28.06052608836848,-6.286877587163872,-47.56946126778166
1283,-13.154382042440716,21.8194718619975,7.647555679355719,-58.891666322959736
1284,-13.341385392407574,16.460414881946633,20.46747650220459,-49.7227731195012
1285,-13.60425751189848,12.652396887697648,34.71278151398019,-44.28160270172384
1286,-13.750366309275933,3.270028143516754,41.22980051064496,-17.488205653037767
1287,-14.288894872158837,-2.8793996576191034,42.382357994197264,13.231830735103811
1288,-14.21737763841486,-8.924656201906828,42.07268696781375,32.07823320816078
1289,-13.094558513337006,-16.386379801394014,28.30912606137099,51.67122229240295
1290,-12.69045981550471,-22.07341843410484,8.634707600813272,51.15296832976378
1291,-12.347134950457756,-27.445619972824037,-4.075298031726561,45.20050130191567
1292,-11.275300750439442,-29.713813618113704,-18.67614924663758,28.90648034545052
1293,-9.957804201139083,-30.09470918081456,-29.07460166275723,-5.024087683298603
1294,-8.106907905800142,-27.160853216023952,-34.81047913036673,-32.18922757259543
1295,-6.437239533411912,-24.05095396435263,-41.72833067483589,-50.050606384080766
1296,-5.142055082610966,-21.859569713907945,-41.59811056012131,-53.490159540484456
1297,-3.5891087913990987,-14.00747820956235,-32.970180887359675,-53.82920165644282
1298,-1.9003510377336847,-6.992008503679358,-15.888200600517848,-35.572111822400075
1299,-0.0481150093121414,-1.0467253511484955,-1.5900520771210722,1.5926029369306889
1300,1.8209073844260504,6.827118309359662,12.69000111148216,22.988876544979576
1301,3.5423184398862304,12.522738912044872,31.962896291810463,51.767763121742064
1302,5.276086145094382,17.805074872544424,37.64940060339541,64.29049338003006
1303,6.854637570228533,23.225369755898328,39.21587927337077,42.41677190553855
1304,8.430122180082435,26.90848577661416,42.54884932613777,32.96782881899185
1305,9.842600725521152,27.472912479158595,32.00058019188873,14.21827130728252
1306,10.825720259944092,29.5160892279348,19.94364717164399,-21.15109283998686
1307,12.052320604873556,28.26949496651423,9.841321278415307,-45.04232261675338
1308,12.850216181775975,19.93030679077947,-9.104742988315593,-61.87061982333512
1309,13.451274489833168,16.70668338542623,-22.009936118808582,-63.8922064118799
1310,14.181345953840946,12.874764377862448,-33.380635500114295,-47.14681439029482
1311,14.02342258656472,4.385707152370173,-43.44747317367728,-18.652455929198368
1312,14.151360397887856,-1.9348099925307447,-37.416282108971245,10.731201728621272
1313,13.901336625208842,-9.697755580184548,-34.46066709438492,31.557928252769894
1314,13.301535443074044,-16.673921207050398,-26.417813524712077,52.14777125462683
1315,13.25346954614588,-21.34145610797509,-8.945788413422633,60.33235065856593
1316,12.055003520194989,-26.794708241483704,2.053040345467707,38.675792082384646
1317,10.756043162469725,-28.372713057237547,20.308607589588973,18.199776915576194
1318,9.761795744470874,-27.46888511683676,36.2230626411224,2.536814059807853
1319,8.267350442475617,-27.971025249509808,39.669898690282935,-31.775934756380597
1320,6.85804293865931,-24.0104314422,42.03440137588814,-51.82072430952599
1321,5.437228327537468,-17.735055857449993,40.3034549906979,-55.14830289168572
1322,3.6620785842346777,-14.132281314248305,26.56413827322513,-59.17013566344008
1323,1.6696727162147909,-8.054863910064341,14.27887359087208,-33.68184027626103
1324,0.0779080754998631,-0.2862625242096328,4.521772045035505,2.6473022742195558
1325,-1.6116392916308089,6.405759320248308,-15.704418992207591,23.91138976389584
1326,-3.4450454255252225,13.516348292158456,-28.851666188092626,45.77840284736902
1327,-5.0760808203899614,17.995347788687468,-35.02643276773506,55.908632934806604
1328,-6.564159910943317,21.612653603767512,-42.89230883380242,52.82375003594973
1329,-7.813672632752969,27.61986090921664,-45.03520798344925,32.46293630856076
1330,-9.39808988934169,30.588440547873237,-36.57241476094077,3.9130658084802974
1331,-11.03309844709952,28.32815082435809,-20.30985326431437,-14.741311912596103
1332,-11.986037996402729,25.418056573242666,-7.231649238688988,-39.52771242341532
1333,-12.687062597206475,23.198513423449185,7.025262817928251,-47.92089123024039
1334,-13.612640218222168,19.027427581829212,23.9058935814669,-44.64664586450749
1335,-13.997204237783308,11.732051727596172,38.717302647172346,-41.67960343127847
1336,-14.13943601581218,4.554363725120766,46.58578542385658,-17.133975920831517
1337,-14.513541558069846,-1.64035474482489,44.595810923385216,11.864577955603806
1338,-14.109713837698337,-9.308136077079324,38.78671064574064,35.668561488074204
1339,-13.539792666860649,-15.962412357877838,27.86565635260104,53.08975403638578
1340,-13.112063287470164,-20.10455593850816,11.940860980440902,59.30131741709067
1341,-12.09222757133125,-24.352770135350283,-5.33287642706091,50.27867114965716
1342,-10.692483732583923,-27.822887348445875,-20.888844348508428,23.715544723607536
1343,-9.60965334718412,-28.005462690632385,-34.22650407365654,-6.203180875273574
1344,-8.525284065851338,-27.87172222334607,-42.836170355587456,-33.19328094810271
1345,-6.629243508103627,-25.2455904546473,-39.90183892991263,-53.8093031993609
1346,-5.256463397278367,-20.45765255926517,-34.87873710352687,-56.22118745127739
1347,-3.728226333922066,-15.649113930805925,-32.21510526161546,-46.29187701453407
1348,-1.4725890181325667,-7.209651647909595,-21.016348747205484,-32.85904823014562
1349,0.0381244866412089,-0.5802704335915223,-2.8119026307767854,-4.027281588514484
1350,1.865773952902145,6.249611391761846,13.657016594010656,25.85730314229681
1351,3.716699501647781,13.222985790307575,26.414944545547318,46.21728013288862
1352,5.156671232694407,17.97374224092755,38.91307019074566,64.59761064513918
1353,6.906109644562548,23.97230624717622,45.06679309402534,56.11322145342047
1354,8.505491479783814,25.22104974255444,38.4367419639525,29.22339820018442
1355,9.655995707717013,25.702915301382745,31.6010209923229,9.237206224929878
1356,10.6298515276726,28.375494274820998,23.862819882062468,-18.04943372174239
1357,12.092407903378444,27.683390764688284,6.037284080474819,-42.47046175865785
1358,13.090649485871836,23.720362009476503,-9.316873973345992,-48.16373976497425
1359,13.283538674830195,17.50278044350489,-20.594532091156,-49.17246784339136
1360,13.578426292196127,10.54716984355582,-35.73738249348753,-43.5446861276057
1361,13.792532810767623,3.910593795063505,-42.78326262984229,-19.850283150856967
1362,14.219375541621956,-2.1757277114097637,-37.94515100035596,13.04608588060114
1363,14.33911907122274,-9.364349816291906,-36.69988427615272,39.5432597046713
1364,13.849410833648108,-15.857796641678306,-29.89328420943866,54.8938163131661
1365,13.112921582939634,-20.69978100931621,-11.28160044977767,58.238319737953134
1366,11.58964492166615,-25.021803018428272,2.4058779303072697,45.82802285582011
1367,10.753382409850929,-27.168754892356446,18.26504152366988,20.335987213690714
1368,10.387505598626376,-28.018235383905903,33.491340691469304,-5.299676256898238
1369,8.664442702657652,-27.1603718474712,38.265869757024575,-28.65214106022131
1370,7.030271985334366,-24.945396279984838,40.65576800056124,-49.18155788224431
1371,5.333832800009077,-19.941019903382312,40.61885550011766,-51.72592119484671
1372,3.463756815830493,-12.850352417983686,33.429388336855936,-41.57295526390362
1373,2.1810999374902167,-7.834176932296941,16.90305848321441,-29.75428282743087
1374,0.1974702220813924,-0.931135701331641,0.7911024509676281,-5.59358687053782
1375,-1.6950958043717037,7.023200392209674,-12.58940822157183,23.829751034051696
1376,-3.3031322509059464,12.07872398653717,-28.447767133002344,44.52188505998674
1377,-5.170293465758732,18.200635140293343,-41.45335765557229,57.234876075453485
1378,-6.709361256209832,24.794355365889714,-45.289741035700445,47.1558020951793
1379,-8.217178232293008,26.527598815178862,-41.24808189630994,28.71324420626297
1380,-9.35656399163463,28.04421462376922,-36.64914092769459,13.757391459851078
1381,-10.370786608342314,30.772565178076547,-24.31002614170211,-16.596509119626262
1382,-11.448923883884618,28.18882308866341,-6.043169711764676,-38.78378977321427
1383,-12.736414289222012,23.931997047742698,6.837217213737404,-53.99083476976011
1384,-13.612061445836844,18.833563234287794,22.615457997932022,-65.56023991701886
1385,-13.383620933696877,11.099745719826387,35.91688069089287,-47.9009638912371
1386,-14.242380522329311,4.200765326253531,40.35780884789392,-17.79945846746068
1387,-14.304840579363372,-2.0647461076032414,43.49537474424142,12.00453215929565
1388,-13.273180003565358,-9.056477211651329,36.979091005449845,37.552164904999245
1389,-13.62734435344737,-15.96167450914345,26.891155682066252,51.65929737777424
1390,-12.35633747234715,-21.29192416825299,14.918677510594534,58.10561000368307
1391,-11.11538668500816,-25.813674997494672,-5.880776847357993,46.288313825641126
1392,-11.140162036693257,-26.86557285975414,-19.118160949673893,19.753761970427604
1393,-9.52237378560858,-25.49801502962237,-32.17818208297831,-3.075530242631885
1394,-7.777423326573626,-25.769489877468917,-43.19004199559868,-25.74813220316128
1395,-6.560132597543998,-23.835768013665984,-43.07008921504121,-44.32696151141545
1396,-5.220882274848009,-19.645048271950145,-41.787707384829446,-49.496881925589605
1397,-3.5107010999245176,-14.763937635948423,-29.79164815041895,-42.06984341518546
1398,-1.4369819830908457,-8.283723291669958,-16.08312185800969,-26.66302582825392
1399,0.2915605080470413,-0.6940108666349261,-3.713368526238355,-6.82922341208905
1400,1.854812117077017,7.066313956343038,15.293572740735272,25.448534789166843
1401,3.618170845039458,13.765208265746878,28.74249033249953,48.768326051822896
1402,5.367721376533154,19.04352826149443,41.45916020791083,49.43921505355456
1403,6.924518894271387,22.81851709344392,45.13679448726907,48.39769764082439
1404,8.524458109224724,25.951154361419867,35.80952538815609,36.32613948265998
1405,9.862573573042935,28.933225192864484,31.716515999213694,11.803204803563403
1406,11.003162403609169,30.3875664509751,24.14093698235501,-17.13369594639289
1407,12.220599837965892,27.50357594839716,7.560433580033077,-42.93991681015723
1408,13.17516678350421,21.741256045401315,-8.33398027688645,-53.35975232348437
1409,14.12830281767674,16.855495091585908,-24.520395448714225,-56.557014598606656
1410,14.205792100281542,10.92822790674836,-39.49562892294352,-39.37602930550429
1411,13.568077527820606,3.747559843790441,-45.19028896352848,-14.541838967192689
1412,14.345838841157274,-2.5115022125701216,-41.71251460296298,7.554545267007143
1413,14.891404195704126,-9.403202724111908,-33.70376595495054,37.27922432954165
1414,13.663363240108993,-15.577985442142564,-24.63436993088635,47.33726429841317
1415,12.768733576948762,-19.5643064887372,-13.35996849741423,55.3737174259204
1416,12.163125536866572,-23.3366544665123,3.4619431242235805,52.41019326866444
1417,10.666701204935634,-25.944799539594896,18.652335205063537,18.294830732089395
1418,9.484140777036371,-26.88700000134031,29.649335444538337,-3.395623650100788
1419,8.389842066134406,-26.793211971094024,37.86079012799519,-25.28499214347812
1420,6.952140474373664,-24.855001758699476,37.94960708196686,-48.61814700501145
1421,5.762780658566044,-19.62768205021985,34.26190262373302,-49.15705478490327
1422,3.7243219028341623,-14.772570989035556,31.522512655132232,-44.95539087633279
1423,1.8377404786779152,-9.417032813883452,20.63896042331544,-32.179839325173816
1424,0.4605369528280789,-0.0397638271424511,1.4714252508842949,-3.145806635598092
1425,-1.6404740121879513,6.401351566391895,-15.361882990555388,27.916502177859
1426,-3.350354690837776,12.03629560556783,-30.545148191512908,45.244722793028814
1427,-4.875904003594769,18.18712565511123,-42.87276620787361,53.68267903054402
1428,-6.633949290034252,23.004423999243045,-43.03462304694949,60.69801972885216
1429,-8.11066511383342,28.8618456635877,-35.73551498497136,44.0676757504516
1430,-9.358503016946088,29.41636078121337,-32.05491929571781,10.893922384892903
1431,-10.15423581464256,27.550859607402344,-22.84653795111308,-18.941150067396848
1432,-11.49654958233168,27.33785882448501,-6.236839096809945,-48.57498442077849
1433,-12.77147795585006,22.45303710427015,6.999911718186468,-60.17044391035142
1434,-12.599966355219294,15.541429463143686,20.118628661692583,-52.35704259729482
1435,-13.528511711253486,11.218740702724972,30.28586048190596,-35.77781385217168
1436,-14.64000750798914,5.155254236629844,38.75664196565617,-15.479044781107405
1437,-13.517642266517214,-3.0498418876659343,41.580277601475245,5.675379484028781
1438,-13.267351185509142,-9.491541355380832,33.177698285115866,33.55088543561669
1439,-13.382008553078776,-15.916532165874742,27.36708160260855,54.72657059834273
1440,-11.949437511972064,-22.60030832197208,14.04226476767758,64.01402553599019
1441,-11.320977824055262,-25.031202807237605,-5.314555910580111,48.84703931568311
1442,-10.876408387443009,-24.13121543848229,-18.355359089023978,18.794991483146987
1443,-9.390065101518305,-25.305664692530627,-34.53200677756536,-0.0069048470977577
1444,-7.744480611063409,-25.59772906668968,-40.09640928415547,-27.21782105393504
1445,-6.290090024865094,-23.64951407749504,-39.892669818248805,-46.53649984435469
1446,-5.102117263652872,-22.06879818534253,-44.44496420895666,-51.037508891982725
1447,-3.3990133329107266,-15.966051708070154,-32.217110384251555,-52.58824439867931
1448,-1.5445259229636576,-8.104581751253136,-13.07814281758442,-28.309275077325765
1449,0.1033697431375912,-1.5321013254852005,-2.172952945737279,-1.4344097363355104
1450,2.0468569240538272,6.266163072592462,11.762739754778975,25.521065611076665
1451,3.693055332372751,12.345411911761405,26.335424422064307,50.17228534756396
1452,5.329196429711374,18.54068765478769,34.02470269760465,51.75601190874204
1453,7.126757050918968,24.710597670318748,41.57247199832318,57.19486990629776
1454,8.517025684138389,27.32227360406705,47.16164850885036,40.17279727370533
1455,9.976744603948646,29.451182892932597,38.44108760279255,7.657304732131706
1456,11.512876040911578,30.212194562210243,21.75558124755992,-13.17857067224122
1457,12.297564009658345,26.301272728921504,6.595115974387454,-46.65001785916047
1458,12.740220252794645,21.3572282324094,-10.121364836973155,-63.13501260921476
1459,13.353439631827314,16.916347150599904,-24.233330240108216,-55.0916857879738
1460,13.520457922852074,11.513978284454424,-35.20085809807756,-39.9293894578941
1461,14.21213968349366,4.787526282338149,-44.7506586332172,-18.44374323258762
1462,14.965631427801782,-2.863611328142724,-43.89974334086094,9.585775481125893
1463,14.293426990469015,-9.361090035544294,-33.89669792423797,38.06997269181375
1464,13.977719228891146,-15.861461342893564,-23.491548471478158,53.30127695832925
1465,13.456005303238271,-21.23835974447502,-11.53855759387227,63.13088430163316
1466,12.076865762041052,-23.454110026259517,3.1722770456335354,51.60338695634891
1467,10.955852411760134,-25.16100409435603,19.363445171911337,22.32353258577132
1468,9.949278618292738,-26.53647613999874,30.893356119927237,-1.1735954630494234
1469,8.802798121572778,-25.536697624002954,37.378297653803656,-28.38860977537388
1470,6.800176219685454,-23.658762189301346,46.46146657057864,-50.91230139317759
1471,5.172111985572883,-20.53405791081877,44.07444447580167,-56.63158559159365
1472,3.774282246678922,-13.572784286680871,29.516904932564444,-47.57574008009033
1473,1.8213653860912016,-7.669422384088648,17.112196861868256,-33.061965144689566
1474,0.3032399121630078,-1.795870880519942,1.2493654646049208,-6.20492359515265
1475,-1.443484034195535,6.913139141543979,-14.88754038262948,27.14685241244206
1476,-3.3145331397217888,13.364277347871392,-26.616903088859715,40.15134007697907
1477,-4.915992775531777,18.28185024879076,-34.68866030815059,48.52967695266216
1478,-6.458416563948958,23.60691297152789,-42.74024512477655,50.36948749601288
1479,-8.084945390500252,27.45616747827808,-46.129210008332905,33.32860085026368
1480,-9.826636209597382,27.88748212223254,-35.03682643161733,9.518704305783103
1481,-10.830603644018993,28.687638013626383,-22.65572737937697,-19.3300206235117
1482,-11.651831935888367,28.15491573054624,-7.6274848365973185,-43.71136744872092
1483,-12.797083333344744,21.886815548068626,9.032658875082234,-58.42541089848055
1484,-12.883704004150786,16.88470584586321,20.83214717809858,-64.66283273965018
1485,-13.263167015667932,11.648183536576653,37.41188514698365,-45.479810645035286
1486,-14.155022500077392,3.638825232977069,44.31377480761898,-12.34856718184983
1487,-13.413708769637196,-2.578644643620464,42.49508834292169,9.819534030790235
1488,-13.14189013860232,-9.75994495046234,41.75180211329666,35.89118252616481
1489,-12.96290460192904,-16.83056445172224,27.802270677117804,54.33224899996912
1490,-12.173627017362378,-21.140297912558708,10.422288176345774,48.75610181994671
1491,-11.862021853916303,-25.474983067099856,-2.898634361437644,36.65903554005126
1492,-10.464021351088377,-27.586640870004885,-20.08898273108161,20.756532616038385
1493,-9.406364221386866,-28.71745308842492,-31.08885092078799,-3.6102723166104624
1494,-8.27107684143266,-28.44387553310935,-34.49520119793556,-35.04301143914199
1495,-6.694151225231508,-22.55308965756558,-38.63710366731925,-50.69496985169371
1496,-5.357278905018575,-18.377739704592383,-41.4604416956995,-44.606873748490216
1497,-3.004312354252761,-15.849912272221443,-35.49797068548378,-44.42762450954069
1498,-1.4747807660987746,-8.407665209090737,-19.264810973842717,-33.953881066022404
1499,0.0727070379170982,-0.195894689067245,-2.0543484853883456,-0.5189756813433632
1500,2.1766466565622977,5.712394646305256,14.845744506261326,23.756673543352008
1501,3.5730380779059487,12.353030302153456,31.78739480169247,45.39294067067476
1502,5.2331893743539695,18.90913441524572,37.42592379512098,60.95468534472002
1503,7.036394110569745,22.91307633319684,35.427276147238445,48.86435196987805
1504,8.917255961538103,26.753424481431463,39.13059872348367,33.22352480424888
1505,10.364128100907692,29.476617525851907,37.61707342636373,10.433421947145687
