,Fz,C3,Cz,C4
0,11.777252247586585,28.80908625553915,51.04933502299637,71.87787583913658
1,13.450556223971086,35.12222444225818,62.09666336129128,87.93746174004208
2,15.243359897323996,40.30114920213328,74.68736745379742,107.3407170440518
3,16.494445362697164,44.647702776855006,67.4885317269285,89.20972368397514
4,18.6039878014237,47.74626101767379,68.02247062035119,63.40414896209991
5,19.629316762647367,47.78915147533984,60.39873739486256,38.84580251510026
6,21.417872632996573,46.057048914097,48.72589851255378,6.565259127044072
7,21.930916329241327,43.67508877060001,31.147717884505173,-17.002562144520226
8,22.95483988745843,41.23469248656649,15.60978733786945,-20.069629763493573
9,23.10322572997366,34.79284583715636,1.32686455355444,-14.534575662050806
10,24.047761823254294,28.87343442436648,-11.350698528769216,6.7654357196743575
11,23.847564580424432,22.01840670901105,-12.012684062530523,34.67355271297285
12,23.967958906698705,15.498057752000154,-5.639913471544659,65.49054541190125
13,23.62243256017708,7.558461169950043,-4.914761713247927,81.58558336659456
14,22.891204062509324,1.0061186018258148,9.664401083194084,93.19616631349344
15,22.90197113876874,-4.930494178367432,24.104875292689268,101.68817679222484
16,21.426328772624142,-3.5902575502585883,39.68398400846631,80.7624598805524
17,20.78044819518921,-7.007229056677772,53.00828341541323,50.196658750187126
18,19.29627374547244,-7.208755177839684,65.4972334098691,22.199612875905352
19,18.21763978538256,-9.006911278785964,65.84759524725837,-0.0146474321551011
20,16.678184115246644,-1.6562282570062727,75.31213000381396,-7.943696442577462
21,15.093957197887406,2.305841322977553,68.18583715356507,-8.112449251401117
22,13.684515057549708,6.8108394436489785,55.20988915999821,1.6871317726324475
23,11.76822113872219,14.72025011012112,42.18640092413089,17.89840286859435
24,9.999999999999984,21.518587793127043,25.85470615630819,48.024753054234
25,8.216646114156573,27.58545542601143,11.338232433723489,75.35501815067119
26,6.576889882742938,35.162904231495894,-6.340437115115179,82.97233207952249
27,4.78733093990317,41.91921312331142,-10.635050098969272,105.23810586229524
28,3.121031406341308,42.27384526218944,-8.612157244508118,90.284073098539
29,1.4142937089162952,49.13919297734304,-3.7995278914965738,62.22798532925352
30,-0.0629730003044493,45.56266217270941,-1.2353026462046517,38.58919409716789
31,-0.6118788558438499,48.85607486320501,12.054713923003504,6.708988842796771
32,-1.6413390250389917,44.8006187719472,28.990360939958126,-15.356637652323949
33,-2.5066768262963954,42.91860140404648,44.92874377599124,-26.80568735163213
34,-3.7180903095597575,35.163526560152235,61.65391751766653,-17.02237578809339
35,-3.475241849698909,28.41876482744312,70.41736953368277,2.427353563559535
36,-3.790988510296146,22.297639566892805,71.75931585942817,34.654158833077034
37,-3.962489352554341,15.546174439861788,64.8938592046856,59.75468408776986
38,-4.111164081491879,7.3035935814301,59.91570954232618,80.61412368163118
39,-3.9926617101713777,2.916794076616611,51.03594411583924,89.34313003016999
40,-2.747947353076805,-1.2233891273157838,37.28663538425812,103.37260513750348
41,-1.3703587078179211,-6.913526957855762,21.48135077482651,76.16322044717687
42,-0.5755907024531144,-8.007984196380004,5.003906953922918,53.88827668921967
43,0.0550426268642656,-10.008964189288232,-7.309548821797243,26.863064019788
44,1.6799288685410794,-4.205267848258337,-16.309761983232313,-4.983637717103868
45,3.200645428774962,-4.492475424539908,-5.664137268242406,-4.879547767664995
46,4.656152011679296,2.4612975091545977,-1.5580954393137638,-4.516733290442133
47,6.6120840396488685,7.194717699547997,2.266054124525525,-9.73529400997456
48,8.20064534875595,13.793426936741827,17.422348415910207,19.001770681346027
49,10.000000000000076,21.499394200035027,33.716830558436264,47.88403088874151
50,11.8200082429984,29.226801493369376,46.704973379279735,77.51035795053008
51,13.424882220649131,36.11458207255015,63.85816194733847,82.74606938831512
52,15.38559381958932,40.99655629084279,73.25067714506048,95.69061935518172
53,16.684035988713724,44.1156676730293,76.53847507291493,88.42352009131648
54,17.954859828430774,48.184443390117806,74.07262164028981,62.531588205926624
55,19.669068287278996,47.46352376097069,62.186031518995314,38.370839615361874
56,20.77258094840223,49.08482655203778,46.16053721276453,16.953875220264326
57,22.361905677579067,42.75315276875473,31.11981095644676,-11.23141735360646
58,22.74851095618432,38.881117926234666,13.782677712391266,-21.88013668725261
59,23.709577595406504,36.23008753966022,-0.9769663472386227,-5.12865462596708
60,24.388594840496864,28.98508137090845,-11.386937155996776,14.28838563473801
61,24.222070563529705,22.188526147611825,-6.073632344305786,33.36898779403331
62,24.02041009456115,15.054212579758396,-13.998963978818692,66.09893562797583
63,23.415981879089504,7.978268634042264,-5.39242602278285,89.29334246163195
64,23.77666229513403,1.2477366579002087,11.240107644939249,86.22205815501037
65,22.57285114437482,-0.7863622465895048,22.82248305725289,92.95736726216614
66,22.041804979208216,-4.494556898798606,39.22930854865612,83.38319151132714
67,21.090999814968995,-7.503853937283843,53.80424267341871,52.40914767899929
68,19.927448638629947,-8.464617841492778,66.6447475228797,22.208361249486504
69,18.669189890670182,-5.814318962386277,74.39154116635382,7.966450285628035
70,16.654206178767254,-4.607885351164665,76.86857165569553,-13.509669519779372
71,15.219059889602306,0.2848737845626559,65.87210850094294,-20.46707908838534
72,13.47964616083737,8.675149502720805,52.17962056522099,5.360479305662437
73,11.690009580225729,13.876600538881412,40.53734599576687,20.42860394996226
74,9.999999999999904,21.433766477488117,25.95307143941505,49.73937409286325
75,8.303529753903218,28.93039227400908,12.47895663247709,79.88498006580224
76,6.552926870028097,34.49882859748216,-6.033811183031098,85.54682766891065
77,4.710378176923344,41.72215391629825,-13.6492731604812,98.44082677320375
78,3.485248817656408,44.76873895025852,-10.278451502080578,81.97245973627716
79,1.9093939960812616,46.4429301998009,-4.643277078305715,68.03475874015135
80,0.6929278400689416,49.4083901820388,-0.4198297649436213,38.44326737014827
81,-1.1754830813154449,47.39811041395578,11.710564744000596,12.47761943504052
82,-2.190396263558132,46.89599168942422,29.017956143536733,0.3019201886728027
83,-2.7599694742946728,39.25772180187673,44.910854606082,-8.108653826366321
84,-3.4650464874162115,33.917538714011904,54.562484874687456,-7.197945610398222
85,-4.1927125492835255,28.73335352286288,64.85590654283968,10.248752638474404
86,-4.416157023332415,22.217284318439116,72.07477952276452,33.31378116136381
87,-3.46280771327414,15.255372872942552,69.74074822820779,64.75899523687119
88,-4.137266153421438,8.023580779066327,67.49644149428102,89.82188187899513
89,-3.156107357783714,1.914035911864545,51.5171036005899,103.54158975932997
90,-3.3478083947971946,-0.9400239607935248,37.10878647329293,91.62835667342232
91,-1.6299702512245169,-8.312862104259327,19.82446833421909,79.47857998180564
92,-1.4152953264903942,-6.420875928459147,3.560380993128554,52.80472297458894
93,0.0784266382986569,-10.334795572137978,-2.4573777701539115,25.721778863212258
94,1.890033107982584,-4.198534274515449,-12.697068243979077,-2.16368860883469
95,3.1198439020813025,-4.976624935013039,-13.398822253523733,-15.54949717292378
96,5.011353267723699,2.8685851678191625,-8.75502330701866,-16.403022769755758
97,6.610001094121667,6.844846980525675,1.342709245580206,-1.8069320808482277
98,8.229504318116303,13.86771879958087,19.82061623937102,20.60319527736805
99,10.000000000000156,21.370649504112013,34.122346884418725,48.27482125379383
100,11.79805049369198,29.0942479459378,52.17585349019848,79.59388392255437
101,13.44411884479766,34.746613717942026,57.68689472478288,97.9384527515311
102,15.297328431618835,41.018083063051336,73.91068460852753,93.40413215530457
103,16.92267385577613,46.96204841042291,74.69898496099947,79.80923445414483
104,18.514130747767275,47.665668874876815,64.38763918217936,66.05065770761365
105,19.19980647908157,49.23293495140962,55.84915736984493,38.48271403166316
106,20.989014877413325,49.410490732162735,48.88975400774811,10.344976739676024
107,22.24895708257271,46.029652325736,30.932453253081604,0.5496956939147566
108,22.778131054291077,39.28786940728539,15.226151313917992,-10.614142285825013
109,24.076357487343763,36.91643327570435,1.714889153440236,-4.363327719874128
110,24.439638373659008,29.90511730101794,-4.558784538103531,11.575006066890683
111,24.736930806528395,22.202370303824576,-9.29624604830773,34.24287568529418
112,24.28239841319336,15.519430032090106,-16.769066747072124,60.12404924074269
113,23.510510783521493,7.51957831937213,-2.861388397276322,78.41053482278957
114,23.77347911375451,0.8335647073614751,10.888079878877964,98.71738399627088
115,23.400569293994398,-3.6131325587241,24.049892486838196,100.4854909033244
116,21.908114895484037,-8.482728869650384,38.4131971267215,82.4280277915654
117,20.668542094580808,-8.218437468255964,51.53816700284234,52.81073660945039
118,19.450082969225758,-7.8675123216197775,66.0312612718186,24.480446111605268
119,18.251270394977723,-8.540552787275814,74.1934070503568,-0.937270269805488
120,16.83747504022419,-3.0950341752728967,69.17821511301108,-17.70256580879815
121,15.41262761225333,0.901862224314808,71.26973575119405,-4.855987809790236
122,13.521577014252472,7.828109179203144,59.15461939294863,2.7035340015023266
123,11.68690224269381,14.682109208638472,42.4424553387578,19.76610861921236
124,9.99999999999984,21.35780423995105,26.29839892483506,49.09001857534208
125,8.171640167238724,29.11251884597653,12.328385529720263,67.51612430502429
126,6.331876195741316,33.752195838173144,-0.5762204591889883,85.94028406517336
127,4.971799956980246,41.556986533677005,-5.699515896379019,91.02153399977372
128,3.071795358909129,44.164806156786206,-7.040016584040593,94.55944025962576
129,1.877266840672597,46.84460932416265,-10.2805978835149,65.85970641329571
130,0.1757995052394036,46.426579850148485,-2.4608945400490683,38.88219992519112
131,-0.837415827611304,47.51729236773945,15.054173095839504,13.308464327656663
132,-1.457230264107455,43.47396963543342,29.03477059544668,-12.510867183594286
133,-2.335288935522565,39.312038461202825,46.23411680963337,-20.85867685016452
134,-4.03568325639942,36.10662619982166,60.31415967309751,-5.514428279750888
135,-4.559272556373418,29.32980935437961,68.17131191954456,4.28751192471627
136,-4.230321402025888,21.93534369893005,77.0003578177009,33.55224913384816
137,-4.075339910463093,15.334496919902769,75.51050242188663,64.79438835770623
138,-3.775461156564868,8.287522807844057,63.2342824113552,84.84885944530282
139,-3.2965150792776647,3.024463527181588,53.56324415372311,104.97590895465464
140,-2.75502927784113,-1.8736302767318485,36.45006631524352,102.96119227200744
141,-1.6856771216387043,-8.276328340885861,21.702899904605623,77.56644247831179
142,-1.3310031184428368,-9.190533492854424,3.0808471664133954,54.16157462257681
143,-0.0642115100115319,-5.956509497396247,-1.4427930939539948,23.204427987195007
144,1.8980927445306928,-4.49379061693185,-5.517788761406493,3.3685736590748974
145,3.29717909526508,-0.8214297921610196,-10.670419799151766,-21.00126185296545
146,4.537131594390839,2.7692211936719886,-1.53346183720371,-10.923409298746982
147,6.499048857741131,8.31494785734934,3.861539147899734,3.2159380306413112
148,8.160025533985138,14.536881618996045,19.685987475416333,22.06066541306821
149,10.000000000000222,21.50151107935941,34.46607133953996,46.95622321074602
150,11.713616382177817,28.57622784636495,49.31427715373195,77.96837409431501
151,13.411777525565402,33.46080270167552,58.77368153310482,96.11985801612946
152,15.227464405800736,39.87666835095746,64.8537958172563,102.27602183887213
153,16.492942103653924,44.74077107138409,66.33337531614359,94.37326093357564
154,18.1554816624067,47.61466621408313,70.92104684216541,70.81981821996288
155,19.5699133318423,50.11666500100278,63.899953896486565,38.89216657863764
156,20.73950080344085,49.965406333321056,45.57856770691129,12.55515521249952
157,21.804334020274304,43.60821646532478,31.245766370109912,0.8459238075101609
158,23.287153877711447,39.15912773254969,17.08006997399125,-18.697183433957875
159,22.89771311170617,36.611918670088095,3.070173008030789,-15.367386895086597
160,24.18843120876012,28.95005302616772,-4.543107946888767,14.18850944611739
161,23.464070935890767,22.28188084422853,-9.694399805892097,33.79085316984183
162,24.811337926063462,15.357945427027632,-6.094362623306331,61.18574133634276
163,23.248215951518333,9.433642390971922,-2.321804461194091,80.32765883166954
164,22.79292177640084,3.558883535385597,7.872222840660584,105.897401953629
165,23.10840049075573,-2.480887037607854,23.072991734152964,88.25502821579076
166,21.750826608525315,-5.1785778793328525,38.44893382810691,70.61992989535618
167,21.220306244200643,-5.245093357684393,56.38432426088404,50.66094759610611
168,19.272428338536173,-6.292088609978872,66.40768266334598,24.203610467017285
169,18.545879358939725,-7.48580842536186,72.7507220081654,2.5208875877920818
170,17.02697569801483,-4.6357316376045645,73.49191126780505,-8.80871672945856
171,15.243647957390834,3.2196676405478577,61.01698780964416,-17.017625483855035
172,13.499553055517618,8.29520470272139,52.81651833802594,-2.7607461245535063
173,11.842985279914274,14.24840655391842,41.11236341760249,21.08875853186509
174,9.999999999999757,21.52875273492805,25.71995321382218,47.22552878129082
175,8.220005283524287,28.34644228943755,8.70720201403222,79.14317836552802
176,6.4928414082863375,35.092163625704366,-2.3051613480266653,85.72129643179227
177,4.851435311959329,38.507797485069865,-7.405507669008905,100.43401850564284
178,3.18056352401132,46.52998163903531,-10.165359384377451,88.23022740670856
179,1.4915113024997986,48.56330576735937,-9.927911474810855,68.45428675702487
180,0.0326782643630032,47.62992039027226,0.2291722372466509,38.764664156759885
181,-1.2002942588281318,50.03195982215338,12.137073572733453,8.413160697062015
182,-2.324395231862134,43.978984239444046,28.781110885061423,-18.05727580339279
183,-3.2254817744755773,42.078091646760406,43.45277020942271,-16.960723245316927
184,-3.591710181644686,36.25260547129548,61.33895391022489,-4.670596837363341
185,-4.219007428756452,28.55675589845319,68.14837926445625,6.921123794483776
186,-3.853173400047631,22.181916738152054,71.56920004332783,34.88408122438384
187,-4.293208521354845,14.648658627329372,68.82555808398165,58.18723670396998
188,-3.4462880112546657,9.419903958142648,68.07872343470709,79.38151175552125
189,-3.709140988224227,2.6167841990100733,48.31704299345163,98.63995930689336
190,-2.869019488103822,-2.8096246905498745,36.88147936306041,103.0750254863675
191,-2.006390820852369,-8.723538851229588,21.048925918673888,75.99790471013236
192,-1.2344483296815325,-7.55420153348609,5.018139877023739,50.29972400745859
193,0.1188906059427292,-6.088360055879608,-2.655959500352388,23.419023436756664
194,1.5391316093953016,-6.260309267162661,-15.843912104786265,-7.355406025531195
195,3.223603927967698,-3.915950918640636,-17.77735991396561,-17.36254737821306
196,5.013132000342867,1.0720542013415262,-2.100831527248431,-16.52197960465947
197,6.353509991798466,6.787181262909769,4.390417979773403,-1.8412511678176957
198,8.298186731355667,14.437471884457713,17.89143032963304,19.218616701291
199,10.000000000000288,21.30351613858852,34.58820939162533,49.51914296137153
200,11.785109013485304,28.60828100896611,50.13575222465842,78.9417167900551
201,13.6629106296847,33.38002048809263,57.78651972673398,98.71472086031426
202,15.007345250430324,39.91541067998506,68.45633436970284,95.78609901822838
203,17.05934945090881,43.132327195717465,77.47148432124283,87.61833613166985
204,18.131475207703488,49.18005684781258,63.50567472145458,69.91568714970003
205,19.632377221550065,46.49860256980903,59.56392882356701,38.51217700524044
206,20.474158694917925,48.67753564620224,44.66416778869439,7.234591749055198
207,21.632319527499625,43.5170850323489,31.14793098995147,-15.626412362927596
208,22.966257040359817,41.205311891055935,15.081360772664748,-23.859699533809867
209,23.560829182671583,36.97028881721429,-1.8281479227052344,-19.52733645075781
210,23.94890122173505,28.456966492141746,-8.756210822711104,9.968293304810022
211,23.714797235524216,22.108859247579943,-13.21251555965872,33.52435431076556
212,24.73206781744432,15.5260416954674,-5.035084321372096,63.21338956396017
213,24.04872380144284,9.388434690627172,-6.239948448872767,76.60276580543129
214,23.88532325445942,3.2475299227773924,6.025243203797313,87.2703431716717
215,22.59123921004864,-1.335595896037958,23.23990939698,103.42529986516296
216,22.02764655688739,-4.353500912175168,40.58118598382306,85.17077061887886
217,20.863520971494413,-7.032250724038295,51.62281084188692,53.319858975857976
218,19.47099049738171,-6.6518111060007,61.8111569062272,23.133550764574277
219,18.70036548205139,-7.52326489246575,74.8098695363716,-5.338653795355178
220,16.9497708956409,-4.343278343468196,69.81871969498117,-9.308429204224012
221,15.308387572229652,0.57267384252048,68.5534638511011,-5.426370407714636
222,13.54611024738513,6.394420970024811,53.643246679091405,3.0956981158143293
223,11.696713504385896,14.163281352606642,42.66012465793008,21.450398031800265
224,9.999999999999668,21.540279088480403,25.648896532495343,46.94996394599126
225,8.297408762682418,29.09945378271637,9.07338654226758,80.88541185222552
226,6.463832071696326,34.1287948841427,0.4666661812887724,85.3202423416468
227,4.767335786811035,41.903723567476845,-13.17085711876848,103.64935656037254
228,3.4640477281547817,42.481867504661686,-10.200984977483223,80.48619359296384
229,2.0750087938971573,45.891928811416406,-9.562702425104106,68.02992805578256
230,0.6190391174083221,45.82156926402629,-0.6801825598135487,38.49825208055811
231,-0.9197910122318208,44.76930004591552,13.880377572284164,8.024659569596192
232,-1.3941936848257477,46.74513191722976,29.040667886814077,-8.006347682609025
233,-2.958591383453113,41.48394459892073,46.07671866965839,-20.460756265366378
234,-2.820456871549874,34.61307970943586,60.31652365713951,-2.4634557139217392
235,-3.507106929244795,29.074463497987523,72.09140909268443,10.388981553692542
236,-3.5800535297015053,22.275654084502072,71.33803787280232,34.92553051288067
237,-4.8042522367727685,14.698709800335466,65.31879460069581,65.90377800337981
238,-4.12811418524438,7.129785447832331,60.28448182994266,88.80390795505372
239,-3.2942944664410856,3.596463267602513,50.86794886613362,99.12259917936842
240,-3.3744950076781404,-1.6933398191855744,36.12206803201366,84.53472299345842
241,-2.4831358026962302,-6.607982935396727,21.05114448965202,76.41153114045738
242,-1.1535854581869849,-8.743258550752888,4.067578179756939,50.26174599013906
243,0.6487349409860617,-6.064742444413579,-1.111040140806118,25.41952421119289
244,1.6737428396080567,-3.9566512745144777,-7.349966855367718,-0.4782395778807213
245,3.402822706963115,-2.361156277079946,-12.309074630195925,-3.513663205789271
246,4.597545821390321,3.227591140406542,-10.20225209730053,-9.881994307869114
247,6.330379019609537,8.078129514899954,3.028740619310579,-3.994626920493389
248,8.255743712155232,14.1972470732692,19.159727731091145,20.110488466420883
249,10.00000000000038,21.388370852189254,34.83298350387172,48.42962062906541
250,11.8384409105809,28.82321859525502,50.41194235911684,68.78169877249555
251,13.6852335049079,34.68836641949074,60.91985802177342,93.63862788055438
252,15.149050590160044,41.63507393592927,65.16987979816408,106.12022289851784
253,16.640455653364242,42.9299964329669,66.8656924637134,87.94447070113598
254,18.05638269414819,45.62524786940684,69.65332421845831,67.62288074533926
255,19.36586275420141,46.39246306404354,60.68068825066371,38.53074259661402
256,20.43514255767461,50.12611633295162,45.10348252494783,13.060355478873367
257,22.4405074971458,43.29409708363898,31.160866184161,-9.67529563813003
258,22.314578827807047,41.58558837562276,13.22886835976468,-5.525397410333817
259,23.31197224643971,36.60252095577084,0.8401165653305718,-5.960074541910586
260,24.054249641923768,29.14227547800547,-12.826157029798068,13.488190428724796
261,24.739038198924792,22.278450526506475,-15.191869688647422,34.78252837777858
262,24.26427736053386,14.830790684820313,-10.96938316130754,63.99049025613395
263,23.559694690052424,7.848505003940321,-7.92065785938366,86.32947179614554
264,23.17648109413082,1.951007519957645,8.414942211097763,89.04229919489234
265,23.158842963859023,-4.169296191408307,23.001081893019467,83.74060663273644
266,22.35180205980767,-6.018543609905265,39.86732423557428,82.66177907035535
267,21.034422791393546,-10.79414276188826,50.49290792974931,54.5004784631065
268,19.439801303420147,-10.570343901615663,67.53531550145033,23.49105855184697
269,18.537694997467383,-8.021678394765644,72.39525799478949,-5.794062587976782
270,17.134182188363766,-2.0036553580809877,66.02464707193246,-19.053918631277007
271,15.142326135002214,0.2668878706358129,71.14300912799166,-18.756846831099764
272,13.53214476730652,6.815572973747724,55.32146874910083,-7.71543198496456
273,11.738127721941582,13.933440043607057,40.08615044891956,18.70880343943236
274,9.999999999999607,21.48366866788996,26.14458282631217,47.16348462846982
275,8.249820102218813,27.579620923927266,10.351784017492914,77.42779108173087
276,6.556826604482019,34.45940332547995,0.1496451864765404,101.02163630144553
277,4.915086374476414,41.00709026202759,-9.81154970346222,94.70538540298443
278,2.964591147619079,45.8941787349966,-8.601018305704358,87.73308850665363
279,2.0393332003758413,45.75116054530558,-12.660208214629662,68.20966858983195
280,0.2352880039682503,46.65122501403725,-3.6985532935827337,38.87991086561184
281,-1.1988290058024609,50.05414536953407,11.624827750579083,9.379408487980175
282,-1.427958459639024,43.37337510809829,28.75648726292397,1.0187782582393368
283,-2.163143860825741,39.50185109447706,44.22391304233317,-24.17590713780461
284,-2.8103779467790844,35.6744690490428,58.89582120936454,-20.57503973127724
285,-4.566907409186252,28.99915240911017,64.01705429526619,6.2055859417109644
286,-3.497606383413693,22.205543197219733,73.59933356859173,33.34749562717242
287,-4.598251450761483,15.3969580815548,74.12625227276055,63.99399425221985
288,-4.22216420202542,7.983107894295976,68.37847638429545,90.625842907242
289,-3.999576535105733,3.9931425943021672,50.53036377107629,106.32947226658796
290,-2.45182751085561,-1.97750786707682,36.715569705070266,87.98509789083785
291,-1.4412995664284018,-5.434435670094871,21.3712600846323,77.28554055513513
292,-0.4878070065591107,-5.45256930721818,4.393008043880229,52.08571496834108
293,0.1443421436468401,-9.369229408812146,-5.281494658802984,27.61859334116224
294,1.9860727739666528,-5.513120914650489,-11.75097839323294,-4.787145390996365
295,3.4351835586806505,-5.365844654248388,-13.44524626553973,-11.848126383473089
296,5.0344119219502765,1.0473449610665213,-10.281037328352788,-14.12844039772954
297,6.524450583060236,6.754428901816787,3.0381930969886675,-4.281351431509819
298,8.195394039092125,14.50391556639105,19.218053933227846,22.10159061399515
299,10.000000000000457,21.51704269183061,33.89643675465451,48.30164665227371
300,11.797555465173325,28.675528140676267,52.05650743088649,72.20405299073296
301,13.344130980861884,34.732668939708375,59.3260373298075,83.15731724707089
302,15.053072909103893,42.3750637919032,73.78427888531532,104.29112403818311
303,16.950591157997312,46.83939227747539,71.90605415264406,89.36879861235438
304,17.95536864883464,48.736462874003394,74.440383676735,69.59464616514236
305,19.692442598621906,48.09671805576588,64.12424282365629,38.60069001550788
306,21.127230418697323,48.36644820422187,46.00563373934538,7.691018228742166
307,21.475867855089877,43.25026045282898,31.17712979424442,-2.644317073190372
308,22.64131478724241,41.979074574374536,17.02331592091484,-21.50333604428601
309,23.72478643149261,35.442761530848834,3.2991425709533715,-20.09180632579709
310,24.005353893088365,29.218515422512517,-12.123167054525638,6.412974109650527
311,24.39882070812109,22.170852175034995,-9.563021604694043,33.587772135200524
312,23.897190991725047,14.606705779906896,-11.219062716533893,61.16999112444012
313,23.663344792828497,8.911670869398897,0.0565813134150445,82.56821247613547
314,23.817782404566216,2.318163311068961,9.315039388331323,100.34474002970228
315,22.320319742961573,-2.10464259676365,23.706162750846225,86.17024352745017
316,21.709407896515632,-5.4622006572502,38.54546408215962,78.54549355909579
317,21.333448534552105,-9.630498992812315,56.04257356590152,54.78840567723019
318,20.12729345792796,-9.372806918256131,65.19790172885646,22.7568136488484
319,18.367213591945465,-5.206033089761657,75.14618436627933,-0.1501216254943145
320,16.73375268072207,-5.231030219970741,68.76332134821891,-16.86822740635995
321,15.264111134909523,2.351467242391738,67.4082704047625,-23.0213004022239
322,13.475646427837365,8.159678817998705,54.22229224460792,-0.7736737955088628
323,11.749446897541883,14.459526051440587,41.622281868069535,16.94449624140649
324,9.99999999999955,21.331146305061456,25.83401564135325,47.00746399022874
325,8.170336564152683,29.06281998905381,10.648692591720074,74.81958737856738
326,6.435401807059296,36.107860276041365,-6.497587257641705,93.16634665016498
327,5.003587680724301,40.61935244909721,-5.94208880934427,88.57724527425206
328,3.11233477885109,45.67909790829057,-17.143800422236275,85.7292579217038
329,1.3205125655032468,45.13413418258105,-13.170905864760094,63.8050405245684
330,-0.1452223482100123,51.04459178127733,-0.445316835703025,38.51351412475779
331,-0.8783240102499157,48.15610422006775,15.503926665822291,10.166942364574922
332,-2.461312444999937,42.50412429171266,29.051712903744388,-17.988120865685765
333,-2.770463394366533,41.25295549666174,46.18368653229925,-25.073840733839788
334,-2.793586988157939,34.79437776484772,57.48431358653122,-10.456441265762962
335,-4.108599718464827,28.183651909085523,69.06064227607523,11.568033454410394
336,-4.668345664906667,22.2186159761762,73.6929739315337,33.277914978156375
337,-3.930352086517903,15.224454725297113,68.19021300939154,62.75464453839333
338,-3.347848449861539,7.285757468872813,67.66837441307953,82.67216106088735
339,-3.803988237044504,3.657558714264489,52.128638832815554,85.93977966714219
340,-2.373783933746722,-0.7715913014038946,36.94463941596312,101.50818508568464
341,-2.384948220953108,-8.436790117712228,21.427811612695614,77.82076208014325
342,-1.2866370286225344,-10.42165968551587,3.3362262456960607,53.97664752566641
343,0.6161567461022344,-9.619382173000863,-8.881695672903206,23.425801846692096
344,1.5799450124744985,-8.953537739158715,-7.461209050715809,1.3371617953643238
345,2.9420741066410097,-3.0969503860130168,-15.811235641294054,-18.257604862001884
346,5.016391347431878,3.256954079180062,-2.1000660269928275,-21.010855898005797
347,6.459456798580921,6.980689849974155,4.821909449956831,-6.436723262428195
348,8.181602245331447,14.48087154049416,19.764116675376386,19.923128993912883
349,10.000000000000531,21.43993841608056,34.140945490974296,48.670657882004654
350,11.729109946946844,27.65665133367008,48.518913835677296,75.4909740383041
351,13.549791948247217,34.41427688209354,61.47458262936537,93.58277344513397
352,15.36329182126247,41.25498144738744,72.75744993693411,86.43997416685073
353,17.14325338845127,45.24226690057856,74.22878051719604,80.78710569961007
354,18.265800735963897,49.75774284850225,67.8671651759958,68.48251231906308
355,19.51594175812563,45.86416770254465,57.29812975740548,38.88198358072457
356,20.732038076283644,47.37101211175964,47.64211043410124,16.931396045686224
357,21.522966779468582,45.29235277355493,31.115353542434857,-9.209966267401356
358,23.089445902484847,39.25692977279519,16.284279091783915,-12.882234696843042
359,23.101766561815232,35.63065423391833,-0.1474261612222669,-4.456657228045657
360,24.556945206650383,29.9057640956921,-4.317235949514604,12.596325273462934
361,23.730102065820248,22.153921674230222,-8.994289602830818,34.27146096045315
362,23.54128918153432,14.858787421860804,-4.84873564593515,63.93340142071034
363,23.857612356334563,8.070939618587373,-8.126281629503126,75.89244872803987
364,23.07351140018167,1.8083628083102816,10.413891490582362,92.33161371860946
365,22.623027179731142,-2.873056088994449,24.08424607953067,86.42927328154234
366,22.10145147432169,-7.762075717132262,38.17935236809456,73.1907821618336
367,20.637072578616458,-8.580077333185152,53.44320145798983,55.023605403764975
368,19.45967427576812,-10.342205953619867,61.8456461511224,25.31376304158173
369,18.236606926734574,-3.827771419893864,70.2289659499028,-6.652946815816975
370,16.681057292716215,-4.4272492778226855,68.04429831035556,-3.498909233562067
371,15.283944955528092,2.0493032344528075,63.24448904557493,-17.279449961083678
372,13.342567839600598,8.855496090188291,53.6939579967307,-4.977952735488344
373,11.70082315398365,14.160276906548468,41.04345473272896,18.495684076388653
374,9.999999999999435,21.40759028719417,25.752504129889548,49.974424441759375
375,8.143410253573848,28.27102627002097,10.29785429986945,80.08238636313439
376,6.37879979889719,36.16751760734737,-2.0572047051563658,85.30768268730483
377,4.536717922519811,39.95967006493886,-7.551341061847658,93.2315077340414
378,3.270933403225847,43.91976192082373,-15.457733522458703,95.82585163909516
379,1.300314605078439,49.27080280101096,-13.277870649368763,69.93606542800416
380,0.1674549068591577,46.91757481019157,-2.222305460236363,38.54963605015649
381,-0.9971558830793974,48.31706349601178,14.86339264586268,9.739346501149653
382,-1.7852607757200225,46.52689020542232,28.90413705938068,-0.3792779848268779
383,-3.004979854137805,42.74859616535352,43.42513623041536,-21.701698083428745
384,-3.641510425444745,36.65297432007423,61.572172055655024,-8.60962737385885
385,-3.491616145716449,29.924510854595315,69.15119950394023,8.26987210977143
386,-3.5171551152729403,22.325683616471885,75.23200805712764,33.63002330436266
387,-3.8373385890893994,14.819471824780784,75.52964752994293,60.6958788361122
388,-4.09110324354887,7.420106898754176,66.85036330668481,83.84541641733918
389,-3.6448066805006274,1.8496975122712165,50.2573330697617,88.15561089476498
390,-2.70776298874104,-0.4209221029323196,36.78011329047922,82.91846566516173
391,-1.9679640763087232,-6.362945205463323,19.25726051961589,78.11964640171132
392,-0.6528211173118947,-9.195544415786769,9.079710817585651,53.74256458888679
393,-0.1641830404203137,-5.427891568928139,-2.6063189894166,22.608524646997257
394,1.8417247105776104,-7.952590387942362,-8.392531757634295,-0.9777975639642378
395,3.4031516112826274,-1.794281660867945,-7.534741944060954,-24.659541957124745
396,4.791440282806309,0.402193120752905,-3.481713429062303,-23.376956580501464
397,6.624357740495614,7.746387902463415,4.185263827032941,3.5734768054962918
398,8.205644030146058,13.900884721242768,16.682931841872843,21.77172035206373
399,10.000000000000622,21.445021044660333,34.845940146985704,46.904956546012855
400,11.730944600487268,27.626029281899704,47.27430788464528,79.50068752835196
401,13.560623401957724,36.31954212748438,58.36093135427537,86.37264463315313
402,15.40617668813379,38.70097269092908,74.19714985293132,105.5155101335558
403,16.50162414923055,46.24482126640607,75.2197475227652,91.87691212438727
404,18.47985915179469,47.07909624450931,65.95071830406516,67.26015379011687
405,19.868165513454095,50.59585991783131,57.25514985879761,38.82071856497395
406,20.58699797497394,46.624880394753696,48.92901177794102,14.9398276942334
407,21.606149723271358,44.76654212487834,31.06201416423069,-1.0680426922712414
408,22.553667269128248,39.40928090321057,13.755589001289106,-26.111061802083967
409,23.015012992436223,34.2276451289669,2.1171292791134637,-15.246651952931089
410,23.25896018000717,29.15298911942221,-6.249290374427403,8.387857620019886
411,24.042059018914426,22.296520299771256,-8.961413394831851,34.629113505934775
412,24.34603052096992,15.487326838197957,-14.276678812062812,62.14778044929264
413,24.50621900225004,9.067500518534514,-0.4843674620971043,90.99594673372042
414,23.81931310597829,1.1922192932407292,9.304809641177172,106.14720074735294
415,22.99607310422064,-1.7768107582674553,23.22050183576991,93.92386798149742
416,21.792351947125127,-5.241413989920662,39.55142243625656,76.96303461390156
417,21.303674859172524,-7.342406314760119,54.90419709496845,51.04307227228099
418,19.287124443557232,-9.134285856481206,60.29400682174983,22.41559197002716
419,18.4363657346083,-3.87596250337419,68.97806980131494,-2.17557215512317
420,17.138770189293876,-3.713638790129984,71.59901392611471,-18.39290813352541
421,15.093551160605209,1.193163768308768,67.36834614535614,-24.58221003947463
422,13.414848736222703,7.718449074930076,52.84612849824165,3.904497954367841
423,11.79338283593314,14.796529097359876,41.71528234579218,24.189276475933585
424,9.9999999999994,21.40643411328988,25.95673588318633,49.03137845384283
425,8.24282546100378,27.58337886293575,12.32104020135123,77.61185723661688
426,6.547913363774905,34.82032520720282,0.0896596378628622,92.55187220020704
427,4.659553103289325,41.78403466247559,-4.361100487894689,102.65512893819108
428,3.2715855655907378,43.67769319334424,-12.353994643244311,90.4498368989355
429,1.808720519375813,47.66113756769934,-3.31976325461212,68.17168717443414
430,0.3142299411663298,48.42035688311223,-2.006166630711789,38.85685853353314
431,-0.9559815859336388,49.113961115474126,12.14487341773726,9.564821774637984
432,-1.6705815902854582,45.82272336155028,28.873445236816373,0.3841087210893761
433,-3.008684867223593,39.910608192933616,45.56776525479681,-9.241215484090487
434,-3.095824877383075,34.56830016103937,56.20816359489099,-10.883377699454876
435,-4.44116691377552,29.421301734776694,64.13232204217096,8.896392953080003
436,-4.024058521499965,22.256742431601648,69.37881604376608,33.16874535994029
437,-3.5743945305422,14.78305322631947,71.68593963692106,61.687255937526594
438,-3.564831136477334,7.688993679572816,64.71141189322339,93.22430584420076
439,-3.434063228864618,3.649190769608396,51.27179021771037,102.59200394326078
440,-2.584418549762548,-0.433558226998965,36.161203849991104,88.89612255234734
441,-2.4857119670160603,-6.552425417271966,21.680069026721533,79.94722998919023
442,-1.1895119487666186,-9.36541289575337,6.777601489695893,55.165460047149125
443,-0.1314693116573924,-9.403496343472604,-10.13448230257405,27.388259814844503
444,1.9512328747279053,-5.715994222624133,-11.128932077451168,1.8499448271557528
445,3.136100970907143,-4.145967140912859,-8.711669682189772,-17.372300903802653
446,4.613151725526947,1.90349245372537,-5.461507645629865,-14.788746730006745
447,6.586611542846121,7.29325684512321,2.3211689951832817,-8.406972392607273
448,8.239167933094068,13.95493143678225,18.86679471273501,19.611593120346875
449,10.00000000000069,21.45582987655096,34.22701256229831,48.60938203540826
450,11.686558643164789,28.047871246589537,47.60674283623153,68.23787218526499
451,13.548833507913532,34.22230060767497,58.301553187722405,92.39499671086308
452,15.173997127606636,41.01369319750711,73.94627906729576,106.70040447486022
453,17.12715990473712,45.39920840129727,74.73638813546526,88.62853733891349
454,18.208184820367983,46.01866735766271,73.30059314093688,67.01685208081203
455,19.873654441334796,45.51820721507332,58.287541731446055,38.55112771939964
456,20.572317985009946,50.16932688266158,47.55906713563876,9.298684666040955
457,21.587008017546093,45.56621470480604,31.069346266877616,-16.17859447776877
458,23.05381362505254,42.3451718390931,17.096656627534845,-10.463382773395756
459,23.570080016014565,36.86628948932447,0.7615295524940073,-11.352144547295891
460,24.30460185276074,29.88772964844948,-13.310585916437496,11.445875180715548
461,23.61005151246296,22.11106401175816,-11.681992560856171,34.3419237142513
462,24.02630152154273,15.51765757106152,-6.421485308860959,65.38818568830504
463,23.528416032562387,9.113271120430952,-7.939855265294156,91.7969168524323
464,23.623698087081188,1.0307313928231707,11.219042852566222,86.6562406433857
465,23.066309390222784,-1.4868725168515624,22.866950599410163,84.63395914822271
466,22.527436508782785,-7.61457248644734,38.48122666971928,71.52956960047054
467,20.99069373848172,-9.524275487276997,51.43325287813656,51.04788494530423
468,19.42520888464091,-6.755679796013613,65.9523267471474,24.174628649149817
469,18.53026910688508,-4.153935010043288,75.06839783727781,0.2276010298387447
470,16.782280111432296,-2.830828448014369,67.28565343190829,-14.214145225238
471,15.458088505270045,1.0354355058365634,71.59402423116717,-26.17356211214312
472,13.6768360705954,8.719929672564415,55.19986819916019,-1.773109047664427
473,11.730745327305163,14.67376968823676,40.07874725152949,20.92178460768465
474,9.999999999999297,21.345565052186465,26.117363263812507,47.28320037122443
475,8.230308377274733,28.799699202073477,8.190461102523638,68.79511623950167
476,6.645979498380875,35.73787215556869,-6.564250605208947,100.98369912794224
477,4.730212821338359,41.02822140893947,-8.321652736277962,102.32221412199225
478,3.2656209836611216,46.84246568062751,-14.872602737160122,93.3637962401078
479,2.0572814123652847,48.21968367177685,-10.674848125377046,60.95123846054962
480,0.260107595820882,45.817976538604896,0.3685721289812136,38.589903130890285
481,-1.0858348008274668,44.87234056060233,13.754846553905004,6.421213563932476
482,-2.3867151818515424,43.58267457978846,28.767804560620757,-15.892575955159655
483,-2.482374147330793,40.629167278325255,42.622653159229344,-22.42309585009493
484,-3.833932737968208,34.099899404296934,59.60344435851498,-1.936360251450786
485,-3.8489950012833374,29.58728026582636,62.76509354048356,7.114948375912682
486,-4.226600512543064,22.20004709616413,66.6055802171878,34.280423674156815
487,-3.800503634094405,14.600674257251786,67.34008354339018,66.12104349579445
488,-3.923531226833475,8.934325319667451,62.22660658321104,85.6077433343905
489,-4.06803393143201,0.6148825358120362,48.37728253931965,103.2268945549632
490,-2.4187650572895016,-3.42480042149775,36.34952699667028,88.30510290660506
491,-1.640778865913452,-8.088673850376544,20.70390516582779,85.11223397962368
492,-0.5154812855429043,-5.992215327834096,6.346618778865576,51.65270167961777
493,0.7029096787942333,-8.872761120066144,-10.44069404849369,25.58410688436118
494,2.0449530285456863,-5.610151429994023,-8.172724365410666,-6.5292885238154525
495,3.4285894917455764,-4.255129099140657,-14.290972415262765,-17.9832110094653
496,4.737073127020525,3.5220009815127824,-8.094163378385261,-12.512713573750991
497,6.630767569283807,8.070972751636488,3.856185001744095,-0.6280630754176855
498,8.24520302185641,14.48664588248898,17.68974377845432,23.16775982727258
499,10.000000000000748,21.458988261163665,33.95663942718428,47.65513054226768
500,11.81437951397411,28.484517578151376,50.23414221105937,68.97975755286332
501,13.464447642332267,34.63838487707963,60.92095300488283,97.34531013583435
502,14.993577437094046,39.109691296253104,73.65540784496437,100.97050015879148
503,16.554527091057924,43.433172355924455,71.75550808027967,88.50966018623946
504,18.556959350886206,48.92875230655521,64.93129795038948,64.82871468991037
505,19.9754966969785,49.974128429613366,56.471775716539,38.63033937271445
506,20.655542204685577,50.12614126159085,48.79531197196242,14.848500962301925
507,22.319955014661247,42.55247065394009,31.12766800648084,-12.62658637388398
508,23.018983998498744,39.065822809276256,13.24601123066438,-17.891462046505353
509,24.062106952963127,35.987770888624055,3.617450974808268,-18.348724409183298
510,23.66245039885112,29.28206307264272,-2.792074038254391,12.27132073389241
511,23.931582831689827,22.153976363114708,-13.75336575218268,34.000488568439486
512,24.186727585335294,14.612509590706733,-10.507509757105815,62.243127200175365
513,23.807701088032346,8.244013617184155,-3.199233087374168,80.99813168647296
514,23.52711292625628,2.7875976389436232,8.791374103169879,89.00870209493391
515,23.08839941584847,-2.046022608981368,23.93872151202628,85.00360509715588
516,22.43332657093408,-4.498632888713598,39.16411689991151,80.23713485193184
517,20.929840447733447,-8.380620932985437,55.98925333435493,51.07319916909428
518,19.4636122834254,-8.033467516360734,64.64913222160064,24.55871154519649
519,18.032943403059043,-5.422727572880788,70.40670386031508,4.085787074946829
520,16.58533113714717,-1.2072416401871742,67.13426616464385,-14.039651428565064
521,15.340760803678732,0.6786777278752503,68.69766298800381,-6.322974932396619
522,13.662452505473034,8.023168553242343,57.97263422975229,4.839981272927069
523,11.73770172887446,14.071641216956731,41.30748682219976,19.86293547608176
524,9.99999999999924,21.285816599800025,25.269433394565084,49.83844931601254
525,8.254566796389838,28.671686535339877,8.513376109254487,71.9031533444588
526,6.620377512682248,33.598042405178326,-4.124361845542111,101.83279218090983
527,4.98511174899601,38.78471790284772,-12.22754665557654,90.32276435221144
528,3.122363652848718,44.66030911127073,-14.147627453468516,83.359166620204
529,1.4702763417870042,46.6720257005403,-8.510948349185497,64.35334075681253
530,0.5856588027201166,46.25923784752841,0.0545244444768613,38.624115772319016
531,-1.2176873272479083,47.425970801313866,12.087017903952514,6.492355609183505
532,-2.384352601744366,44.02682072051781,28.929251460741867,-18.15036425876321
533,-2.740550980065217,40.36654152074696,45.858212192820886,-16.557962181121546
534,-3.247035599614456,36.00863267884199,57.51631157834341,-7.504423650397854
535,-4.133613195130113,29.212341201034494,63.66627470881069,13.707563107623162
536,-4.060544759932595,22.277895161144293,66.36694709956467,34.882854231264474
537,-3.6579734717577512,15.015477527660918,65.68192049415174,66.14432250936527
538,-3.692078329524527,9.448348072507134,64.51091804629735,85.10761304514097
539,-3.874983820983125,1.8751873601271816,54.47535217641968,93.79910532632174
540,-2.376713122950827,-4.052320259542309,36.87826802990922,97.2598155140283
541,-1.466572938902921,-8.074379929190222,21.672301694226388,71.04825011876386
542,-0.9933531426235938,-10.555245675084212,5.680254642792903,52.18901290475006
543,0.4229460355873708,-6.457691690521354,-6.037184995466291,27.587365172243157
544,1.6881613056073803,-6.870431803085726,-9.574604619888028,-0.3184006238966219
545,3.415135470835091,-4.101760150875165,-13.54039715786945,-15.68609560596331
546,4.711824538355267,3.054173001199203,-11.80427459809745,-8.926015120527978
547,6.480328102174967,7.111658117990071,6.311381798323346,-1.3994200465613955
548,8.220394545957497,14.370675788063568,19.377215849962088,24.06534994815742
549,10.000000000000815,21.395232942157197,33.77900745789765,46.90598498581311
550,11.756085730223049,28.608453015545024,52.154591705232,74.28338955000424
551,13.687068475887669,35.25032555612288,59.32240962348012,82.41993579541739
552,15.427131735131786,40.12214281693045,65.25622493362643,104.51125122224278
553,16.932714314120027,45.06549933003681,71.95748177267055,82.87858016879898
554,17.91822059739978,46.54790859929966,74.11338107014626,60.91651233914604
555,19.646206576212883,50.70286132163598,60.52462065483333,38.82691739677049
556,20.949062679171107,48.53323480032763,48.88371843203527,7.499104074027812
557,22.25667175581015,43.0710465540713,31.08643253561469,-0.2907134682439292
558,22.286125762228043,40.58173248405565,17.37392878881285,-14.462257301491974
559,23.836438044097022,34.046353283268445,-1.2149815042342915,-4.186038768932654
560,24.36321068369119,29.361817200328066,-9.665113385335538,11.680121220413008
561,24.19069373432184,22.202949043497348,-7.52307061107787,34.17082483998464
562,23.92772099629334,15.133728190959197,-7.732989700863406,60.81534420815392
563,23.854309479273866,7.213520267821904,1.4962772033190994,78.65579454050078
564,23.23055289526473,2.926043433055689,9.392010172990233,99.9716953185003
565,22.660550544781238,-1.251009655053128,24.005851107159923,98.61927927707548
566,21.347639965276645,-3.760100382616159,38.48861258617617,75.4695500541965
567,21.00601943419314,-8.230060750498332,56.20677320458692,55.00170487698941
568,19.24315408755988,-6.324177595492873,65.7934475658,21.68444667588781
569,18.645232827581253,-8.893792430252823,69.34272302755468,-5.963808940474522
570,16.83653132596599,-2.055770212021148,66.25750237390133,-4.173109393878157
571,14.988896263746156,0.4077488357701639,64.74140482660997,-23.20611170789818
572,13.426425371334544,7.626268153813632,55.48603541331292,-4.81660209059401
573,11.764028111342425,13.814198608670914,41.684708338900045,17.184592375929462
574,9.999999999999112,21.417131200505462,26.280126925775253,49.62360095325414
575,8.262809440964844,28.36124698549393,7.701131597086022,68.86452937587688
576,6.34921661958542,35.253139455587444,2.778678244010376,90.20003272315138
577,4.776491984643934,38.54773439924735,-8.844825553950876,88.50492945683939
578,2.973935465793276,46.018398579846334,-18.62124731882693,79.96742684860399
579,1.4567072078995,45.0931878600658,-7.7307416493765615,65.19337192643451
580,0.7701117784644058,50.19161313435644,0.0808425739523635,38.76445992067956
581,-1.4251096540068708,45.94413075951148,15.55780917460549,6.050768183643278
582,-1.83153167217311,43.05813608959456,28.865785258652608,-5.1840731949251975
583,-3.339995822712046,39.10724787764247,46.35987949611323,-24.219641040279285
584,-4.117378778119299,35.917829999860714,61.562783068978,-13.979570662767737
585,-3.3888687080733906,29.834735523662715,62.86814577112212,10.349804733841276
586,-3.639258332456448,22.27603408958065,77.3743559937162,34.59557442158973
587,-4.456103873763672,14.85342997720984,76.40198679781015,65.56256854042257
588,-3.515415521243959,9.083679308405303,66.08822925736925,86.93449328146366
589,-3.647847515420974,0.4798646393284329,48.67419945456322,93.09827490509204
590,-2.442153063955722,-4.27246837171759,36.031023352100064,87.70869506808128
591,-2.439111818242557,-8.361954238187888,19.534838850137604,77.3538058493846
592,-1.0420340750483206,-7.860309367667771,8.494672764616283,52.14453417654386
593,0.4354077602285731,-9.232026641489693,-4.369680058706358,27.27379963144141
594,1.9747129668807624,-7.06472065013018,-11.25946279565656,-3.693023280814834
595,3.2781267921576065,-5.051861901219812,-10.963724421495977,-20.80827143242056
596,4.960801438481057,2.68405789315748,-10.526734267197988,-14.344112853081448
597,6.61169148352721,7.999916101993151,1.898894707180688,-9.863161026767427
598,8.287704964136102,14.526579007083294,17.876094965503896,20.29566788833119
599,10.000000000000895,21.41967469762372,33.647593840973485,49.36873349616029
600,11.6876965284253,27.835088594760823,49.8369795642629,76.90785546859888
601,13.678571752454058,35.904263196254334,60.21704541628243,94.4302756783364
602,15.304895378617832,41.90232074042213,67.15541201026272,103.70038696954764
603,16.654306743770697,45.93326833136332,71.06824878580161,87.10808662021554
604,18.538486437665263,48.73156982837037,70.86431255453292,61.57411617508528
605,19.55434689371536,46.19969549898772,60.91355184971519,38.67512677791553
606,20.496913818623952,49.04482234128495,44.18962625024026,7.495523861827685
607,21.831002612844152,45.38878278462829,31.049994162334045,-7.2305170938864975
608,23.217153189499623,40.77530525337215,14.388947844787452,-19.54248288915269
609,23.44902156755145,35.75817470132059,1.9312411653421504,-12.882224378965349
610,23.78101528733437,29.509370246045837,-8.70644657380381,7.861355583371292
611,24.026906374890338,22.314597508501844,-14.83734479530699,34.89604419526811
612,23.736206425134306,15.356262499045542,-13.823134634808198,62.00012129491462
613,23.275543532738496,8.066128492312522,-0.436831449240298,85.15328897004521
614,24.01311433247145,2.338160646176359,11.187888123230518,104.85852190227908
615,23.28351474486344,-1.0662951195268209,23.52480831911128,88.52027016204943
616,21.713618636159087,-7.577486650502955,38.19580863674503,71.65204744966671
617,21.07393313686585,-5.231099864262905,55.8147370214095,50.72004223841707
618,19.81129001887065,-10.419604551594112,70.10024892600921,24.64397403448761
619,18.269114877306905,-3.941580986580835,69.25512673931499,0.2088505284159652
620,16.627754915647227,-3.643546103578647,76.61812100341606,-17.015073851650712
621,15.336621798190368,1.0916059898048935,61.47725543936853,-25.592136834461257
622,13.369663269054694,8.772546613770961,56.85742568668192,4.933661514469087
623,11.739309628528302,14.899050628171212,40.52734299849785,17.58042574620538
624,9.999999999999034,21.311330669524544,26.34458026201648,47.87315913011152
625,8.311532790406636,28.66245887144484,10.111453110934296,75.83004776014967
626,6.532432733104386,36.04456170335854,-5.633066487582134,101.60954514629742
627,4.846526276507171,38.57736311213368,-5.151847512145828,101.3988037742601
628,2.958565791000232,43.10597926867894,-8.605187833009133,82.79426276674542
629,2.073409747589338,47.87375864257386,-10.12707792941729,64.73896583977582
630,0.2898930332912872,50.27726229841163,2.259361376158811,38.53738124725811
631,-0.896935125844422,49.90343449985178,13.110002926499076,9.971521444045347
632,-2.530514847735457,45.38802221715712,28.782416771795347,-5.499311914689535
633,-2.8160753564054737,41.77572983900168,43.364983580906966,-25.947251438336263
634,-2.8250765683816166,34.8007676659775,60.385492852718414,-10.556926973001282
635,-3.7395859900428494,29.44283817839438,70.3816025370293,9.866439070824208
636,-4.140041570791048,21.936244164686144,70.86650435065181,33.975381448915435
637,-4.180514464590804,15.346917540311331,68.58807689356823,64.79049362501914
638,-4.422849668510253,7.434553476488578,67.77434579777818,86.39488024201842
639,-3.605015827174663,3.119473847175282,51.88308430887077,90.28048591803582
640,-2.708322985497004,-4.5663963346346,36.573983253271976,88.52331112233185
641,-2.5093167634948994,-6.44827730787248,21.519697763846978,72.51462758383522
642,-1.035313465752031,-8.455487488081936,5.237377343482638,51.50235014656532
643,0.270530618564706,-5.886731168303228,-3.9191206868566937,23.84199727282111
644,1.9694181947458544,-6.016339232619046,-13.41727548348689,-4.882582902154141
645,3.46268224674193,-2.9042207203631314,-16.24658704742209,-11.699262513802474
646,4.926396111660072,0.4000036913458196,-7.544265972243672,-7.897591727021592
647,6.565490828811701,6.945634947837922,4.1373521156183095,-5.401175122904597
648,8.240977626772175,14.58225329222487,17.616720056005796,18.16116527232257
649,10.000000000000975,21.42679803053631,33.74641001753671,48.9920969560322
650,11.696784386877455,28.62070404802844,49.50004983199945,79.69760535153691
651,13.471396377248862,33.76217973733998,57.539830256299226,81.88285295092074
652,15.211942469256648,38.69325580416323,72.46738793480856,99.72536968739674
653,16.97543952697747,46.92885585923676,70.65794731680265,83.62855548371445
654,18.309790738217963,45.27458263097607,68.78968662986341,61.10639369615886
655,20.12452636487437,46.639864403020766,55.829552229657736,38.47580811002037
656,21.38940345159365,48.04461248519614,45.58129871872536,9.001396345696122
657,21.990383577904524,44.83273595723228,31.070466015557468,-9.46596104143994
658,22.842276760586827,40.504392687528295,14.26861879891228,-20.66592332555804
659,23.944454868602797,36.88715906419176,-2.2467524066775013,-5.288218375657692
660,23.99246929774008,29.369200180327525,-10.253409866200926,10.176466029722022
661,24.420622801700915,22.1759021546596,-7.651895814996344,33.25245628735268
662,23.93040611358017,14.70645196136464,-15.125459599193846,66.44223985284927
663,23.40952158862999,7.432019199904928,-3.601821648191411,86.80487578056693
664,22.84185099099706,1.700266824847116,8.769191341186072,102.98090717101049
665,22.196159425107385,-1.3145178054804454,22.81191114514009,93.96636209768678
666,22.136838395538696,-5.071925679239108,40.37667796433432,71.75537444308861
667,21.136397634068302,-6.1808494958586735,56.82826873721503,55.22789514753526
668,20.015700978442275,-8.814746474217628,60.06652590033206,23.92252824411159
669,18.277568387924724,-5.363463108313944,69.58902791291095,-2.9485045097134237
670,16.85925390643629,-2.084679649306299,75.99147438655751,-22.295281266836888
671,15.08151120312608,1.343943748275457,68.99919850392298,-9.39358587129604
672,13.40019059888203,7.885113594462602,55.05515485308156,-11.09573234158421
673,11.707174102871669,13.885714521849296,42.87186085962797,21.31984801032941
674,9.99999999999896,21.38186138039418,25.80726362981673,49.5326079503479
675,8.259188901425462,28.500729295410707,13.430733591115663,73.23113740123571
676,6.523098945227025,34.609745721969084,-5.131709308177477,98.5521821115
677,4.644345223594069,38.71565716242816,-13.633279371018098,89.64058980433165
678,3.0277333375134834,42.43608118548872,-10.111509180861432,83.37814861539002
679,1.906112985726249,48.22158103538851,-7.770094875692202,65.03863525585311
680,0.4747140349770316,47.26808167307272,-2.4803019522760508,38.394075657595934
681,-0.989383944301963,46.0142442877643,12.999333620681146,12.346637357129117
682,-2.2888675977129616,42.54843814118257,28.87932748328163,-3.8079443020409016
683,-2.257160694772576,42.26582866609801,45.48196140582222,-16.27312324998079
684,-2.903822336468016,36.19654924857383,55.67972018980976,-4.5946613329631845
685,-3.342748116312785,29.16456337635519,69.96434859857597,12.289359993501847
686,-4.709735035944782,22.29821850523388,68.6720453114385,34.57589989484241
687,-3.651603363070338,15.342079697162468,68.33531453415873,60.48776412336517
688,-4.385919795952702,9.3566165261744,65.93323744163968,88.87186998374227
689,-2.8302050099830733,2.1214958725752133,50.20541807769253,88.71792951008145
690,-2.4744481945829886,-4.491073841372923,37.30451645888659,84.93093592803855
691,-1.6315558240956225,-4.122091680425744,21.254434426500147,74.3866177315794
692,-1.211183117960454,-8.381513621657852,6.78613004243137,54.727547664468645
693,-0.030884298727221,-6.522860592899985,-9.198067095286554,25.923720515015653
694,1.3520984694887377,-8.816886719584765,-15.544654088439252,-6.428973229372353
695,3.133346998137423,-4.225197061776726,-6.267470042659106,-7.858418556531369
696,4.900042253874379,0.4346898846583436,-3.796063422585391,-8.603596806588548
697,6.5020233666780864,8.095441741313984,6.69558792376856,3.6287588658492
698,8.214999822698699,14.54683985736209,18.59370033325894,19.87865690679028
699,10.000000000001066,21.429496204860165,33.95360938348822,47.76995497012712
700,11.753674364839718,28.722539365152542,48.69108567716491,68.28207704258294
701,13.351824403882151,35.28804165906031,65.6194340323633,87.6168381290534
702,15.170430045816156,38.99094270372991,71.92449114266128,88.8208831013573
703,16.54773973984227,46.02523494939032,73.53451319296187,92.25247367085343
704,18.637052099787788,49.44463014671174,66.4271103521688,70.64308201290282
705,19.712070175433897,50.045275500818406,62.08929100045625,38.53287476341367
706,21.20524065024373,47.48853611490101,47.82487870799135,9.169563828540944
707,21.46280716342697,44.72344340351368,31.102739857070027,-17.818420800119
708,23.005509038843265,41.90204973995747,16.9045767841614,-6.045506033274357
709,22.92922196597012,34.553027883047804,1.1834019408515708,-3.832399071376855
710,23.427233077346028,28.8119936846513,-13.317193295935844,12.83765832041442
711,23.91878104595956,22.243620682113768,-13.2228364958143,35.093895210130725
712,23.65630711772905,15.525304607187708,-16.758061017308286,63.56609039213285
713,23.49788209505273,9.065280813685686,-3.627778546371872,89.45288480518013
714,22.96435655321584,3.6603947309270737,6.088493155150374,105.1143440834446
715,22.996885556603047,-2.5837124538203438,22.91200926321688,89.848840622964
716,22.422287320851765,-4.2732220618769965,38.42654759683622,82.2672508144913
717,21.30671980425946,-10.536729161260444,56.252815539848775,54.95105347124469
718,20.124768092534957,-6.020843086096164,60.57767226586599,24.05092703138848
719,18.42408433846068,-7.043259373644276,65.98345390478369,-1.5442046898388
720,16.58131334710528,-4.537789191577087,70.07387683099938,-11.466514072156508
721,15.015823811796237,3.0223947260905817,62.55248877536432,-16.806895914582356
722,13.591922267683165,6.630318710459925,59.246133336048274,-2.01753533995894
723,11.794010778527172,13.87981094324321,40.44486601249953,17.35293059777328
724,9.999999999998936,21.42454933188728,25.46673821562643,49.4654708200683
725,8.179376076806228,28.88341966003828,11.889521973508115,80.9471535983138
726,6.527699564605209,34.32247405419721,0.9958445830516496,84.24646555889312
727,4.60366715222946,42.30993233106067,-13.974108117742157,90.24740049546944
728,3.1780649982084315,45.83194493188917,-17.077299016803728,86.28274504864694
729,2.08347080752264,47.88394124339192,-13.051167747359996,67.41290095147653
730,0.5681371102483883,47.04010594731644,-3.174611065497494,38.545377016328
731,-1.3955044511639354,46.51308886647664,12.427455613481804,11.27659570088312
732,-2.250261454970552,47.25725583094208,28.92312597807896,-10.639105148414489
733,-2.985044076100996,42.14399274348474,45.93380376605384,-21.712160242939497
734,-2.790212625168204,36.11197752733576,61.96183365559493,-4.212171762682914
735,-3.304915775120921,29.706607370115464,68.94939306290489,11.332505226994725
736,-4.422962020816256,22.155589470728497,68.17165494493833,33.66841895552945
737,-3.9045736148501895,15.499159343855885,69.44666262635914,58.92151459229146
738,-4.438925124890014,9.27924426283458,62.91642242221156,88.24170080519218
739,-2.9131423141854764,2.186531578652982,51.28278060139038,86.11434965154896
740,-2.2826145724191083,-2.3579691762999246,37.19680742739453,93.94928625903646
741,-2.353660421968904,-3.799965772251106,20.0990668233605,73.18840677558583
742,-1.0047163803452968,-8.587143277362507,3.86412072952465,53.091809528265685
743,0.1088969810361106,-6.090380979021898,-7.241971597653027,23.88505673000323
744,1.8835403979630208,-6.778860642985187,-10.08228780875595,-2.265439836321832
745,3.475178832728932,-5.222736047895008,-17.961013481822427,-8.770811078210606
746,5.041150928884671,1.6325135310895291,-7.642549976572667,-16.22733613582792
747,6.500637668595964,7.496888082016273,2.265112229510759,2.2019373081262046
748,8.240544170324629,13.855700269357827,19.86755846800431,18.65466244578368
749,10.00000000000117,21.361838038833827,34.57002520848405,49.97926022345897
750,11.74625165309662,28.76272915862242,50.55900203373099,79.24311669534768
751,13.647619882177144,34.08318008985776,62.5881707634695,90.11422668774122
752,15.388422456578484,41.1318326850989,75.14094324890075,87.9990582630634
753,16.851157830361974,46.95971690385208,71.88572561301106,89.25673120988138
754,18.25157134362984,46.59495446563192,74.2814259991201,69.20547511393526
755,19.43122128733659,49.08400320115436,59.430413731806105,38.74520253113107
756,20.705599604644497,47.57488122448949,47.46611961593192,16.153732886303484
757,21.448704675349997,42.73544481928048,31.170220667809552,-17.54611651882977
758,22.200273110806044,38.86456893748819,13.818948074688224,-26.471069125331425
759,22.87775871858836,35.564848174584874,-1.058988949443151,-10.94484110396406
760,23.501168927948623,29.24333675188584,-2.484569579948285,7.319234073917059
761,24.534140589164338,21.970299079327106,-7.506667952516466,34.689727517795056
762,23.496604847589253,14.931539850365812,-5.090637472035411,58.67330281580997
763,24.42739428225305,8.710537587538704,-0.8207088039360038,83.60050897789748
764,22.82122629492836,1.347578612682522,5.498169245875847,97.69076711526569
765,23.21015550168238,-2.9585419469363075,23.211364509130203,88.33128767883045
766,22.47516054127968,-7.879762648088619,40.253308827750224,70.69315739846598
767,20.50861350532712,-6.298578245507972,51.023056771620574,55.274329679396125
768,19.257863057030303,-8.32008251322868,62.25813085677362,25.47086640344439
769,18.11142707094836,-5.590708269139192,71.36087958425836,8.216643871695961
770,16.809854412321318,-4.428260695112499,73.49667104903797,-13.700443997716604
771,15.131292362803237,1.6018334757911,62.67745797675525,-20.56303871166549
772,13.491191675019955,8.169631058229552,58.67983601077688,-4.794666424599626
773,11.788018411360689,14.709401619504415,40.25406001009396,24.19194619711395
774,9.999999999998826,21.476576085554573,26.350687549036262,48.127209635185096
775,8.211454731137074,29.15665532321703,11.671984511786643,70.84993004267076
776,6.320024697341835,35.38686236547052,-2.280666678365911,95.78731195730128
777,4.70442879417898,40.44880748780369,-4.148193239238218,106.7503180159389
778,2.9789031136006363,46.63660843931015,-14.386809520439948,82.86708271880624
779,1.9087867661325597,48.618268037246025,-6.774793327474143,69.67205408018924
780,0.7072345314034418,46.311352698536055,-0.4248928131389533,38.88327232406345
781,-1.2924713459379973,45.87038869803855,13.069822977095203,9.4544414236816
782,-1.3581909718402336,46.346418801497286,28.945266627132625,-0.0871211678704497
783,-3.122858800231516,39.32073851660228,44.23133426075304,-10.104150235759953
784,-3.5577000545944344,35.60963831423404,55.76516589839646,-17.245034342713076
785,-3.75582686890936,28.54355578390311,71.5043843847488,4.7540834774379945
786,-3.526804044056046,21.936578031416328,67.92369751335885,35.31516533536006
787,-4.642756384730481,15.282470069693067,75.21210020186672,61.95638361609373
788,-4.575905296039771,7.27905612134372,67.08267389037084,88.86855261814094
789,-4.041048036081309,1.1673614951167115,53.32814692281298,97.12149049610528
790,-2.455676248212802,-4.743811838665131,36.68900543376715,99.27540132914454
791,-1.3869872714447204,-8.69634736157856,21.879724025159955,80.2880959450748
792,-0.9211503600058002,-7.905135370898563,6.407481017823557,51.20857908454323
793,0.3100770831096504,-6.5255254173218376,-8.063553145072028,25.014506292871506
794,1.9838017624306428,-4.686267329940964,-15.9237217154119,0.9136235797354502
795,2.904015813206928,-5.347211517550274,-17.205702476934867,-4.082139675562367
796,5.017362929097684,0.5714470543818599,-6.161943883686746,-24.90716865184584
797,6.650732032229215,8.648151182300886,6.110674242491633,-4.901456237887686
798,8.1721948199427,14.46869522232523,19.233530811078296,23.73746668636982
799,10.000000000001188,21.49055226392993,33.948057041466306,48.81566759866463
800,11.751728068426068,27.894354129624396,49.90604498375511,71.92590009020893
801,13.491323765571549,34.05580677766153,63.01840015869448,93.83465597376912
802,15.386638873578018,40.52743189332688,68.67738812628973,103.79811722895236
803,16.612234543691912,42.93487952582868,76.7645024420911,92.42962610857302
804,18.63568980258681,46.48808083447408,67.98440665131656,66.48533351083283
805,19.8552486206179,49.72729333734199,55.52154195141449,38.57014466614524
806,21.04799469278162,44.967512034381215,44.4094464562104,12.93827369004535
807,21.711929883053944,46.11194849383434,31.09517217392079,0.6635891973391779
808,22.17358137418106,40.81303403882617,17.137915793431297,-18.87053130066382
809,23.40168972417605,34.1080148543866,2.1933465222134565,-6.88400090552355
810,23.983468184049823,29.7754631292828,-7.483401644701864,7.734883746652713
811,24.63865136253148,22.01632377555588,-15.935999212998908,34.619873305891204
812,24.29203943266277,14.823201196537056,-11.945439986995922,63.8454210468365
813,23.657017625515927,7.92064434582252,-5.204493304312145,85.32962524513165
814,23.45590996921541,2.189072415626402,8.205116549059152,102.15894748774812
815,22.84560698670387,-4.769286964346392,23.37371770877695,103.1135874251089
816,22.264315157033263,-8.747432017329462,38.94305663972753,78.15281464475026
817,20.99484258203434,-9.525003644621464,56.55080934360152,50.60509396632551
818,19.738540388254343,-9.59884285860234,60.59559596351633,27.414213263957308
819,18.09864787941452,-6.360995301818317,76.14555670523112,-3.1421379429430587
820,16.67483391917197,-3.830378381028819,70.40448862136608,-16.17578267378225
821,15.34767540731369,1.3733073535575606,68.43114885153739,-18.215052769203982
822,13.543415667389205,8.76808125429282,58.70520422272938,4.975441900250928
823,11.74353458169621,14.450307121989267,40.740544087684185,19.479688921936766
824,9.999999999998792,21.471736489991923,25.1408639431028,47.43569395754983
825,8.310855455115254,27.80724437907435,8.747878653229634,80.31224827858343
826,6.654896088503397,34.0459830416082,0.3688935907205497,89.62266184043341
827,4.633898930430627,38.61461778845994,-11.662288395707812,89.84719878087017
828,3.134979851056043,45.156677771572205,-11.896956799854614,81.3756920144341
829,1.5549503240910632,48.173084254163896,-10.74630428838227,65.54330505795743
830,-0.0671701254726357,49.063093850314985,-1.8908230605389773,38.4394552897058
831,-0.361146966767933,45.95716929881938,15.637129850829766,10.176105650388688
832,-2.113366686662218,42.48660795012893,28.981739376286807,-14.415778299143795
833,-2.5948273960905333,41.22264414105272,46.185964575013415,-25.910541324576958
834,-3.425744475197174,36.13545693638926,54.96819645861319,-12.860260002934195
835,-3.6402847274137606,28.811069321341705,73.56660043618118,9.38653147715958
836,-4.540148746704311,22.262974040532136,69.37958325204144,35.06331680155802
837,-4.719025990312597,15.4591183509288,74.58590838871213,62.426375341862055
838,-4.571670373622434,8.62000497268222,59.47164660264838,75.8904144829115
839,-3.2882758551254447,2.264546288425663,49.15436950151541,90.57608754412954
840,-2.660995966992294,-3.5029371163949534,36.55081793601487,87.48087408315553
841,-2.2175297659325484,-6.471502405505337,21.03807695656311,77.61672314297734
842,-0.3964461566462578,-9.294333508022966,6.7572622708854695,52.19790411056805
843,-0.1101079659755015,-9.665729467713229,-8.644046242515302,25.817121312237045
844,1.8211634172280515,-5.25942195360933,-15.92236056488614,4.605377624370284
845,3.4996051573972853,-3.0907958749370508,-6.957304044626042,-13.397213817052524
846,4.865994690317188,2.853464654787139,-4.9758003435704765,-10.050807781636571
847,6.453948651074773,8.590706794960209,0.9317680722542292,-0.1583450903905969
848,8.266498184735486,14.481328841551086,19.925871777989364,17.29595111242357
849,10.00000000000127,21.33881952266923,34.48669220525433,48.97397621560675
850,11.762184436081483,27.8109528978516,50.18676031637217,79.16146960294304
851,13.559711922152651,35.187766593160234,60.94259645329103,84.69766338785394
852,15.12067023491469,38.54156628207056,71.21088494030207,101.51299404607282
853,16.559182593129115,44.219939510374736,73.8220944188185,92.65354939796669
854,18.5533544010804,45.00330786902157,66.99899178305816,60.88120449591488
855,19.391965196091427,48.49730924458476,58.89705164520476,38.59359154470157
856,21.00441017068709,49.76190761812028,47.43376443635742,13.210746690828492
857,21.745177727721323,46.11770665068983,31.196216677832854,-2.234517079339461
858,23.144953090344643,41.04028007780271,13.800573057302518,-9.887762697571487
859,23.3556247407535,35.23840059761798,1.6559966639980814,-18.656352975368375
860,23.290636691036436,28.879500730686523,-5.990015940009201,13.448281170085291
861,23.48779019663939,22.081463065665968,-10.362849980796971,35.12256005100587
862,24.45529481442589,15.480397089926509,-13.663141545798643,64.54145387093953
863,23.22473177185801,8.623811651315723,-2.586277035864313,88.44186999699349
864,23.67049295689055,0.8210984023028196,7.07174384628857,95.8065091987363
865,23.414310432658898,-0.7588589925320015,22.83902399486252,99.47040342158036
866,22.32177669546233,-4.342484008695795,38.61876276038106,71.97679235048832
867,21.00197519732969,-8.205203806433584,55.91549275827127,51.85716010116147
868,19.707352283960475,-8.925169424922714,66.54585566267431,23.750871596830205
869,18.46064675530916,-5.010160789091302,72.41281453695895,-1.2670106695776155
870,17.119558817391436,-1.989994988046405,72.78580767112402,-5.342952266490677
871,15.267696156770633,3.251142539530104,66.4194145393794,-24.441909095934903
872,13.343353248715598,8.31421632635835,57.38186023608489,5.314757688640412
873,11.694638518515536,14.134870461604155,41.04952480972767,17.872558379688538
874,9.99999999999874,21.43914071509346,26.330307572463617,47.03687623682435
875,8.30991925717902,28.63046680132869,10.406125936990133,72.49817954286483
876,6.635800956550501,35.40817490138565,-0.6556200747721377,86.66672423682641
877,4.734521037962558,39.06121531879162,-9.218605809721964,99.10379057798212
878,2.9004672501649065,45.941688249686194,-14.687555762012494,94.68694003628042
879,1.305805282229162,49.097472594206494,-11.127198014048382,67.79685453418716
880,-0.1183136522146526,48.361581651061215,-4.126697948186305,38.523405346773366
881,-1.3541630910833111,47.566127699311096,11.12948250477146,12.577820608530043
882,-2.0111642670139585,43.39967671334287,28.9074806068896,-3.830184209123104
883,-3.024292451673942,40.55590426181142,45.72033913270762,-15.519695271205457
884,-3.8335184007999743,35.421688336635725,54.63625472663108,-12.75722868576748
885,-3.711270029349636,29.18484554218657,63.96076918122367,5.539219784030699
886,-4.5337488799867245,22.11434163668163,77.84940554111465,35.33225350081346
887,-3.6990385619786954,14.585266913867535,75.69075868480844,63.38536483621061
888,-3.7835836383071904,9.29919560474806,65.6651420450919,87.37313889710694
889,-3.608657798876633,1.9622419028123268,53.38405074919346,106.8509585531606
890,-2.339012927138865,-1.0299222044486631,35.819299984220706,102.71473737542291
891,-1.674012503210296,-5.910768059423671,19.08940069153296,84.86561340749469
892,-0.6536206224791972,-7.110298273462448,3.2486051918298884,54.797318628293816
893,0.6729020574860076,-7.289268504327165,-0.0441501727573054,24.28699041878209
894,1.4869299642424565,-7.259829615475716,-12.378128281843937,-5.825168965158788
895,2.917559256592548,-2.3596181464646584,-13.398661316657297,-23.4590075786397
896,5.024721803536305,0.0013995721051323,-7.388729633380173,-22.578962173187577
897,6.502624668255014,8.784421009857585,0.9831096063192676,2.0745360827500647
898,8.166735544010239,13.93803740856119,17.573690621941083,19.1220396259871
899,10.00000000000134,21.28944523294217,33.61266666514719,48.62728386794606
900,11.736487652978637,28.386986146016987,47.00334645142573,71.53003762704837
901,13.427376147080372,34.88384054017105,59.77903694395545,84.28890414960529
902,15.279106213758451,39.49293544509175,65.6513320054226,100.6629375477902
903,17.05722141801238,43.55759839262768,75.99649473897304,91.14506126428148
904,18.593376210409566,48.43470866058331,68.18328741346414,68.51586664145398
905,19.296701324458333,47.26605938480586,61.476370105820266,38.83701761987077
906,21.106460212615676,48.80801175573725,45.10397221618287,16.07551795465496
907,21.876449946426547,43.52577686831076,31.059822145879806,-12.690763951866082
908,23.19264701252425,39.42346545946842,17.2947433491533,-24.64893432132294
909,23.44247535545211,33.951408167441144,-2.059793600401271,-10.896436383062555
910,23.232878210951316,29.39845546676446,-12.838189554550295,11.09409359035255
911,24.462601960725223,22.014362322644644,-18.48416220775725,33.89185382997337
912,24.7022304943013,15.060238148235747,-15.4013991553406,64.63303694263975
913,23.894232410385584,8.643680526032496,0.4669682424786288,78.5006313171173
914,23.358935999541,2.4875162434180105,10.51533583099911,102.39266769586756
915,22.659177570174396,-2.319629717154392,23.17024658662259,82.84470609413403
916,21.959019645076232,-6.15787611530553,38.48806100220287,81.50247889904081
917,21.419689832216427,-9.230085541195702,56.36968146510834,52.11953637512467
918,20.051844774247865,-7.565985179233017,69.23226451575752,26.013945076406465
919,18.234370034434683,-7.120228921346218,66.7380981881169,0.7058429683467438
920,16.622672895907467,-2.3421351486172526,76.62035738005756,-5.408579383469018
921,15.01892226532869,0.8030350812243441,66.141286918682,-16.92045241845949
922,13.522588173816066,7.849002209000913,52.255234170939815,2.143060465775364
923,11.690543855392974,13.945892917876323,42.05246615698425,22.95009557125828
924,9.999999999998693,21.50122033179624,26.271501184028786,49.02030648069684
925,8.295994592827387,28.394475222306387,12.332076228240236,79.71769730287417
926,6.462640202588158,34.025054177984735,1.326932351248573,99.67742938958492
927,4.994529451690105,39.13660482339087,-7.295641469715839,105.6592750391093
928,3.226304582506345,43.66545121101008,-16.138495035228075,78.10831964811427
929,1.887362707784252,47.26070462039503,-14.0721975257416,65.84046144066863
930,-0.0050440730269141,45.73703690865664,0.3642957000469664,38.78433587761109
931,-1.0690326329189386,50.00439335661892,14.36619905198124,9.303966917354572
932,-1.923224258129574,43.19927022927148,28.99256468656917,-5.305083687352848
933,-2.560372480180959,41.72063971975327,45.81243627996178,-15.468504582258916
934,-3.547141746558868,35.73022467928962,61.95676181941877,-9.775321773847097
935,-3.660961600456684,29.05655665161945,63.09274084802483,11.33744809177097
936,-3.814994196179322,22.15719842775929,75.78674647770904,33.63484376046356
937,-3.667271530674464,15.464505556184609,73.49847328869575,59.83256588107645
938,-4.568615745321813,7.404565857638035,67.75433251285891,87.49304144950601
939,-2.928080984048796,0.6525036966190463,50.98929926384428,86.31506256146571
940,-3.4348404612162344,-4.697655564774941,36.33385922831848,101.47318989863112
941,-2.2564020976712147,-7.418258093439984,21.17244150934297,73.21565250120415
942,-1.2353174995019494,-10.50370521736637,7.446306559711338,53.38293495553214
943,-0.0032461064893265,-7.80233934710192,-7.032191637631676,27.24448017338217
944,1.8133949591314276,-7.430237307765115,-12.00361053669146,3.956213763003376
945,3.388989563888659,-2.189487104949098,-6.645710496834461,-8.703042788536756
946,5.01521247177587,1.6103016434682793,-8.131648551906117,-24.036434577470104
947,6.656408898301265,7.414639675610759,7.610887017306954,2.502028530790384
948,8.31223118484775,14.839407672976703,18.69489805133449,23.027652402144128
949,10.000000000001412,21.44067693373889,34.40191779802348,47.98733139489799
950,11.841633723446748,29.10201905930647,48.99578523149248,67.64129146166752
951,13.48716321706907,36.149793312023846,66.06875827019762,82.4029223252384
952,15.278211243780708,41.09005073366259,67.22404455759543,88.217649660502
953,16.64776713937095,45.12490442106356,78.579343187345,93.43715113472967
954,18.103836466696954,45.33208375016608,74.37989299728065,64.11278962092932
955,19.507231044135228,47.82213892618955,61.349035101340135,38.36861332534063
956,21.006752747038703,49.05997712219547,46.78056656857956,6.206725206172756
957,21.52532591732965,45.508864090302495,30.936976218606965,-17.20475949630837
958,22.908114270615638,40.32267718119396,13.37802345187271,-7.68378881107585
959,23.147119132921333,36.25636236349299,4.036143653492118,-6.9387656761550645
960,23.36979471381212,29.08686364679148,-13.56922532732505,3.85872214414352
961,23.691010123569697,22.082922213358252,-12.4697104587678,34.18418627978139
962,24.10710977324372,15.527317629397174,-6.824913823171599,58.048371577063264
963,24.352510119466217,7.323411611344419,-2.8081941541923925,88.45971909722732
964,22.925417069630463,2.296378617289814,6.1237828056626,105.26744265821276
965,22.420685837891547,-3.358451083904136,24.3918094708116,89.12316472743618
966,22.237274922619758,-7.527407289313526,40.20727109202333,79.88437808884939
967,20.41812123801028,-9.267493396100171,51.58339619806173,53.42119616537425
968,19.655448688555875,-8.727188639995305,60.0984334992095,26.76308567637615
969,18.314827525378256,-5.117747596411412,67.97414012001491,-7.256883811185844
970,16.510530326111404,-2.072799721203893,66.75661573684333,-21.40206413219241
971,15.321231959109411,0.0464334064058746,70.55466938961669,-14.014905758702165
972,13.394993297635864,8.319500967946725,53.602489574001446,-4.851631181103983
973,11.795503700808965,14.402593509593874,40.62261586127421,19.673119300786944
974,9.999999999998613,21.503892665991263,26.026835637661332,49.39179442119831
975,8.14666499612858,27.555965350658084,10.122688963179504,74.55971974532636
976,6.400096874754648,35.3343973674625,-4.982412328235853,87.22686700786075
977,4.990487004031115,41.57928340777593,-11.95281393636624,101.35258049661508
978,2.9831343888762705,44.74962493657691,-14.726766705452595,95.4342893036266
979,2.0195131764047263,47.2650751083756,-8.569950842840399,68.72312511596208
980,-0.0772481693057969,50.97946214029045,3.49161989901652,38.766261865694666
981,-0.919752094193056,45.400743858686106,13.019573962292345,8.462110049123677
982,-1.8339210064003453,44.69323614319004,29.04893866759819,-2.5441473301263784
983,-3.2109496082206928,42.90489878548041,42.71020148392836,-11.567859442554903
984,-3.482387709198859,36.34245851253839,58.45379303213988,-13.447814404650792
985,-4.196111880314948,29.92378414871373,69.18783034706257,7.811136375018883
986,-4.673294652618658,22.32424678527467,73.80988592723511,34.882543720525895
987,-4.75295369124856,14.586460339379984,64.58326125118548,59.8823017434149
988,-4.535856062223946,8.845626377560082,60.95222944913343,83.6768444489752
989,-3.8410533508677434,3.4814084545250275,54.184280888529074,97.61582745468374
990,-2.420099677342048,-3.771775163061836,36.91336146571941,96.54613808883217
991,-1.7416534950809766,-4.407814988644088,20.57295942647061,71.2296687096347
992,-1.0476529215449908,-10.221747635855532,4.996399088748092,52.92314986838594
993,0.1821333653190979,-5.334464195981191,-3.4872103104953283,23.378803032492996
994,1.3883777676364597,-5.1119970304818025,-8.408264862299632,-4.871884130932919
995,3.3845385396243604,-3.4743445194909555,-16.268201627404295,-22.76762714243563
996,4.961229461869768,1.4916223080921434,-6.47628970786306,-9.657895951536204
997,6.371610765322833,8.416729005975888,4.291622620118368,1.18251159848991
998,8.15302699975776,14.693597973678576,19.799220480289897,20.47527327917035
999,10.000000000001576,21.324731397647163,33.937026029389315,47.30525456820995
1000,11.75404069339494,28.76747382084475,49.562601110566,69.279210571723
1001,13.466666263887545,34.849529607222735,66.49795847065499,98.83401395213453
1002,15.39351646357237,39.36790285685256,74.32098742549897,102.327548836266
1003,16.517130834434298,46.62127590184431,73.03205295134562,92.2836931105899
1004,18.02517306325268,48.36514853572969,68.49128149506234,68.33729507192017
1005,19.49500163640292,45.52369232481078,61.970040618531314,38.55540083912157
1006,21.267273365666675,45.01006936630431,45.29012365683002,9.696414524830772
1007,22.369911428504423,43.33009581482422,31.216371067776485,-3.8635063220023222
1008,22.928176823445096,41.72890547233434,13.30533160662022,-18.129737256134646
1009,23.12148474203656,34.07161922002453,-1.901547410542879,-2.9158334847388048
1010,23.9683407380593,29.102115506635258,-4.537429292773233,1.6823535182800953
1011,23.67184253196076,21.93011676523664,-17.074879273413785,34.89612306958812
1012,23.736585665847286,14.928851960619358,-11.4132146167306,64.2318011313621
1013,24.061372669283383,8.284970466919688,0.3465199606880205,80.01715309736662
1014,23.89302536573873,2.854373371570585,8.09165730194188,87.75062324322207
1015,23.304413136551062,-0.7320647830056721,23.29114070437944,93.73088202201666
1016,22.24118210490733,-8.05009639654942,38.3018973829733,71.03955457704598
1017,21.080625792652203,-5.919913782213055,57.01559137953518,52.12203720565855
1018,19.642553807995103,-10.761555910529909,70.2712101238865,27.24390326029284
1019,17.93244412431789,-5.409285897848832,67.95100298359344,-0.5830851108044399
1020,16.52205870632732,-4.880046754821471,66.97817240196608,-21.11581556572357
1021,15.315466714420053,1.5400899750536396,67.10553255936553,-7.114691268172706
1022,13.451004921113352,6.498873031668071,52.98449335701152,-1.625283282583851
1023,11.778906704640518,14.53782445367404,40.14229096820264,17.131988348418336
1024,9.999999999998469,21.32213292007008,25.985761794587425,48.77983342083726
1025,8.265891924146949,28.351364038160572,10.19216869385843,79.25606987489527
1026,6.492812992338069,35.393987146574915,-1.3308135496898394,86.65420829446877
1027,4.887709205081555,38.65903657844984,-13.056143042608625,95.12997435682412
1028,3.4437054532324227,43.68673396779053,-8.482037244223015,85.28241716611583
1029,2.023128313361232,45.27119296107244,-13.425342120177037,62.98411191954177
1030,0.553918374755078,47.940182344093,-2.115431905890965,38.350624303684434
1031,-0.601415901719502,46.47003013935425,15.075993180143984,10.7206027523903
1032,-2.1748197735800296,46.64627688813184,29.037374743456603,-16.334452336259126
1033,-2.9987678796189083,40.07931038564898,43.902973617793705,-14.918733406663245
1034,-3.702864789387068,36.1922203636351,55.60543781554163,-7.930430552328204
1035,-3.8913455911373465,29.43148716856952,62.90263941685652,8.488783058013588
1036,-3.6849677066400233,21.98715895762464,76.88736196434053,33.42515910491696
1037,-3.806779470578279,15.208267378853112,76.5251959633697,60.4876025670988
1038,-4.0333242233754,8.542968083814136,66.36183715862124,87.91472093834986
1039,-3.290820583547667,3.4638333451880463,51.98470129953631,92.20239183537184
1040,-3.252251742597428,-3.4279394829108725,35.78778970367796,83.92416828744166
1041,-1.8420493615364373,-4.885953968419852,19.570692421140745,80.35777384273308
1042,-0.4876472787403578,-6.822715464396936,5.277608339530957,53.31623978410384
1043,0.65886181116697,-9.309034822968393,-5.429347214635975,27.42086588361998
1044,1.4661430963815023,-8.716578495044189,-5.351351861522616,-6.688946820556836
1045,3.158738203204,-1.1281177395350743,-6.042880219296869,-3.858067547644183
1046,4.677061790863078,1.900444558881322,-3.1370465263726217,-10.755917508891216
1047,6.399586097582174,7.414370685464501,0.4227757946684676,-2.172002424067081
1048,8.20419707054873,14.222969905506138,17.30993379061666,23.82488924913851
1049,10.000000000001585,21.288591895587068,33.82334929231536,47.65915694809521
1050,11.733786488772724,28.60788335394913,51.15620591932341,70.67174111281395
1051,13.650937602273949,35.26467193269591,61.05707649813472,94.39561767143788
1052,15.00292158178397,42.1484615840382,68.18222322203823,90.9852243294068
1053,16.87790072480538,46.83696841671525,69.64714134292012,90.15463493206882
1054,18.357288512310447,47.483440086835145,71.20347607316954,64.49344379565413
1055,20.037662383683223,47.559977367283096,58.275844566472536,38.600788361662126
1056,20.64529744365395,49.09074522098386,45.7555320714998,11.364801291525566
1057,21.5621760115032,46.94471271819353,31.17761329733594,0.7167434634925272
1058,23.170866747965263,38.82018096235058,15.204057831617485,-5.964985735858136
1059,24.028066404732485,35.133798913790066,4.163124279417289,-9.79517272652962
1060,23.216864893262944,28.49021220934006,-4.489950765027551,4.000868484134706
1061,23.86053272941029,22.230779135669444,-6.88807627719742,34.19974709928157
1062,23.60842781880102,14.57779998327369,-13.241107428974132,63.1871624045385
1063,23.89952142156742,7.635339504364438,1.4317628096533743,84.14319549057318
1064,23.461340301836486,2.816374360555109,8.429467401338158,93.05343542002008
1065,22.758305782644637,-2.199262311371161,24.420325183081395,84.49682664408166
1066,22.22303418523419,-5.315723917750066,39.81565780333773,70.36594394900531
1067,21.375524503142763,-6.522434318079657,57.334201964841455,54.45138779549249
1068,19.78345150597476,-6.874614934287425,61.78031474273416,22.44097869146832
1069,18.317937064971325,-6.801652675001847,74.96698818094379,-6.217384385817802
1070,16.687093741314342,-2.9416529261110647,77.21479684750079,-16.993407204694513
1071,14.952368538267416,0.7987455879965815,67.19979055447786,-20.404479335568418
1072,13.612055997614124,7.166125707758306,54.31115685699677,-6.510350724239174
1073,11.817108176634108,13.827583328051222,40.818512516469895,19.122557661519476
1074,9.99999999999841,21.315523220569737,26.35276780572357,49.1506895887726
1075,8.28708013295259,27.712467946631502,12.230011763464798,76.24528614581388
1076,6.467087772429225,34.518094533885346,-3.6362201463754857,101.44604840815587
1077,5.038968323683806,39.06954558144248,-15.550069398983034,93.83879007320787
1078,3.181163285909278,43.06661341529785,-7.768806676894101,88.69463173938432
1079,1.7928035077407325,47.01003564453292,-14.658531619109496,71.1202299089245
1080,0.4029084187015979,50.96614554227968,0.8237629479756237,38.8273083142686
1081,-0.4411262813018961,46.63001434093688,15.41749303851757,7.459548191540868
1082,-1.715708694776472,43.82870046962813,28.77138848614749,-4.441976963089857
1083,-2.961132134795152,41.782268320952326,43.888306140231805,-22.759826139115205
1084,-4.052041570820402,36.90382425211381,59.14769474915619,-9.04374099656551
1085,-3.253994949053329,28.18912633407075,64.34887819391908,8.602264805801546
1086,-4.563565929869748,22.348738756102662,75.55499188343651,33.83819250599868
1087,-4.098876755824032,15.132259532677908,71.92136647321878,61.51894589792301
1088,-4.399201725055763,7.958850260698275,68.36879762847998,93.28349180738871
1089,-3.507124013836801,1.1972156306297812,53.38324003702713,100.2459858865011
1090,-3.325756352785996,-0.625048125718024,37.1050194272856,86.69880405716134
1091,-2.072115534547823,-3.882607931551316,21.235600751130445,75.01375259155401
1092,-1.206159292200189,-6.293251486254313,8.334243547846771,53.94806109338258
1093,0.418381907043809,-8.908368729188442,-3.858836194352087,25.753958051468786
1094,1.3887258599101795,-6.91224346678959,-9.474325310827233,-0.5239884043210239
1095,3.1209910103392247,-2.98887294744274,-13.23821917066806,-23.391982252121927
1096,4.608686388683644,2.451035216628302,-11.69525948406207,-4.935517595264571
1097,6.309240771163671,7.17826749870861,3.134818850048738,-9.28690492886161
1098,8.303334427128208,14.070042743144157,17.919931610106463,22.40230907222836
1099,10.000000000001606,21.39168447437697,34.61708927364948,49.83458283798027
1100,11.742939450118024,27.80302422365852,51.32398534880481,68.21489394210403
1101,13.42320459706276,35.29754367839941,65.97818832437827,93.11394813164088
1102,15.169708494505112,40.85935896319569,73.15196937487643,91.18890267335964
1103,17.0062892668478,46.100841762290045,66.04917422728191,87.49360616417954
1104,18.042835728612506,46.5957586797001,72.67775388018055,68.46286267844766
1105,19.84029047484076,46.805259464941976,59.8082540497287,38.50817932158107
1106,20.40247757085745,45.01488242153815,48.095965437720125,6.522383836934054
1107,21.855933784283103,43.99734498630863,31.083938116061372,-4.083724416543966
1108,22.93551335400832,39.02305559351775,16.82737799292842,-22.31705317002393
1109,23.08574647431488,36.26741288336218,5.739030661791063,-18.849016807876254
1110,24.51842720362976,29.13701655714792,-9.7747557881111,8.610750122776722
1111,24.08804181808126,22.00654503105589,-8.830782081511188,34.56295344687138
1112,24.188037050514573,15.45040620449323,-13.131492707717136,62.73760182020855
1113,23.497758422231968,8.740485378156956,-6.429303997900703,90.19930221995308
1114,22.88679349283508,1.8048077610836264,11.09123566772126,99.43469740475142
1115,23.195749229161,-1.7757155017685164,23.411493083970484,100.7146567737411
1116,21.72392313766269,-3.882294977668021,38.56747380429607,77.99468708975574
1117,21.440360212506448,-7.608151519941881,53.46945622342327,55.03892760163159
1118,19.631997400385195,-6.706313271660779,66.7141649921274,24.003668099824363
1119,18.612133655556796,-6.9317830702811065,67.53297377086369,-7.644725384007181
1120,16.517150769294414,-2.646680315678015,75.29895534179806,-22.417286244428183
1121,15.16532997344159,3.0079149216441508,68.87831383010626,-8.73499723832834
1122,13.52355204320287,7.774774724101551,57.16807924701868,0.4642969191097634
1123,11.769603308337,14.00364479395368,41.19516500870198,18.65339103397027
1124,9.99999999999828,21.30694950341833,25.32467898778732,47.76489826842864
1125,8.26490853288172,27.722466161714927,8.317523987950764,71.48832420501435
1126,6.3352081319610045,36.03482004403432,-1.7209178426862444,100.35169739557564
1127,4.871883876934004,40.99838176615201,-12.59850629399672,95.49266185113449
1128,3.12861639060241,46.15030240786076,-10.637285185935356,86.11385905948535
1129,2.063798549446375,46.94448750857521,-7.29072772442035,63.97468492012929
1130,0.6547819774825605,49.12766864366303,3.850499154275728,38.39695782333477
1131,-1.3372750620874232,46.09826109757316,12.661124802899533,16.874580266815432
1132,-2.325640319058074,45.52072583729601,28.83162279460018,-6.5739327000325005
1133,-2.496767262760386,41.81899103436362,42.95975711272641,-25.12985587710739
1134,-3.8959014530903673,35.867156858332514,58.62466514263045,-13.675656781901964
1135,-3.48948636852759,29.12440526622207,62.68604769360613,10.787731062399873
1136,-3.802951117307865,21.99166085578912,71.13817841233725,34.7721365179651
1137,-3.531051553338987,15.505066688842884,75.3139329407482,60.82151437647464
1138,-4.190843363695077,7.5074477542928495,66.31247760333774,75.8338316499198
1139,-3.231682246913296,0.513162769937022,53.88360207711662,106.88311891459632
1140,-3.426964154988804,-1.207136004665287,35.759481799865526,94.16425127027765
1141,-1.6968220517530508,-4.531670247256052,19.326519865349773,82.94707050147056
1142,-1.1317264193418133,-8.07294205216635,3.9198116172189046,51.45857598202216
1143,0.7168278422325987,-10.848511121205188,-0.7408631828592256,24.577668755354463
1144,1.55266705783189,-6.61824928818524,-5.60776158834436,-7.0567938024923365
1145,3.2119633266910093,-2.1403028075059005,-12.976311593249726,-19.505733120018636
1146,4.797992979588777,1.934498799849365,-2.363716365899592,-15.957378813206128
1147,6.536454561532582,7.341488391955803,4.06723310409587,1.7343215222037216
1148,8.255518030345439,14.122536335889537,19.97027696061033,20.8596835373169
1149,10.00000000000178,21.31511342573373,34.52686947974629,48.71780202646067
1150,11.85269138771657,28.06903311829592,48.53497647602126,67.71015409660615
1151,13.583740217174952,35.29400382942845,58.09626850681961,93.03276677490426
1152,15.171333976007569,41.49655225356032,74.39278291567153,107.02883512099328
1153,16.700239796583098,44.05805304334433,68.22953693750411,81.8402504166555
1154,18.18440976741134,47.04591240068061,68.32018220373104,64.4361241749905
1155,19.20575939815521,48.230829846506,62.49919727781962,38.36980835730719
1156,21.39772067804875,46.78709649503652,48.08001255463834,15.059024457148343
1157,21.696867023635274,43.76747448617593,31.17182691634837,-15.60304139521547
1158,22.329103895883243,41.76128772697038,13.634639108857291,-13.238359265828665
1159,22.92031292092409,35.206629398189065,2.221757364517071,-19.990491313751377
1160,24.10158283929363,28.70760262676264,-4.003140846737168,11.685738377073942
1161,23.920047556765795,22.31806534725042,-17.310392631032627,35.31271091420604
1162,24.77616638503106,14.927833470274477,-12.06135754873521,61.092034560456526
1163,23.724740701104665,9.18079166169468,-0.014075647143521,92.60640250039133
1164,22.966707281658906,1.4764135761610395,8.179744109984334,88.03498548998172
1165,23.065819873787348,-0.4289581078340454,23.736401042085607,90.17865880787149
1166,21.56703392962345,-8.415491076336938,40.88029245871614,76.68402472975194
1167,20.646820772017595,-5.824168262328104,55.03701473657486,54.15904701372297
1168,19.50498059827277,-9.12923571300584,64.04279630534162,27.20751707593585
1169,18.29159995823683,-6.21391296537626,77.60540113244673,-4.579602984142916
1170,16.78074301356683,-2.767342801038861,77.16134725510582,-16.285300095289415
1171,15.153886168285007,-0.0169227198244605,62.56991688767545,-16.604067715701106
1172,13.618623446379846,7.93033870816104,57.28874523142528,-2.427909534467496
1173,11.801260234307165,14.047372023051476,40.51136970316453,22.056665163513287
1174,9.999999999998186,21.53286828343151,25.704364349771023,48.10321719428654
1175,8.19033684622564,29.174406622567155,11.479280143799716,74.7859461038197
1176,6.395029135677689,35.446606209579286,-5.208070152226618,98.66218446482694
1177,4.659216576468316,40.4609458729674,-10.93341246375048,97.8888268666741
1178,2.8631332505732443,43.685582451026384,-17.90774425411265,92.4086619344546
1179,2.060170366643387,44.68383529508964,-10.813437634273996,61.50456779910178
1180,0.4631378173658262,47.874624914071305,1.2134122120927415,38.844005382190886
1181,-1.2391149157956267,46.132620362034416,13.955671655176308,12.548982153902475
1182,-2.5050355122025003,42.86528888100322,28.873959843932656,-0.8997642989087993
1183,-2.636365196129743,42.62053296255044,44.90643057394697,-15.60030840751407
1184,-3.037099475824391,35.5302571915191,55.26825075957241,-4.198512185973904
1185,-4.487949273607354,29.14302159601098,65.18855089184675,5.878799694279138
1186,-4.751261064434047,22.330939641089397,74.7225418551154,34.59605366332939
1187,-4.578653471339482,15.10983835826445,70.3300787792237,62.16917615769479
1188,-3.347994683628988,7.624960135962969,62.37531801136007,80.80639859027868
1189,-3.673855965772427,2.308405884997658,51.23787335012602,85.00628149926747
1190,-2.283728633222882,-1.4642137553050247,36.527668557224096,97.5443201872062
1191,-2.4450814999136554,-3.863298418336246,19.852876394340235,81.06691619153146
1192,-1.3946005107812685,-6.548846860804403,7.09607600604145,54.97017693641239
1193,0.5605015539257217,-9.769802161614171,-7.691685896194279,23.67174125712048
1194,1.7435135441794465,-5.899502722543101,-11.037835797172406,-4.237883746790153
1195,3.329713751336161,-3.361740280587952,-7.210780627386477,-16.7361374941761
1196,4.643300785572558,1.3404238107591695,-10.680596126082795,-8.70338910860336
1197,6.590376221210466,7.89344021752993,3.977218624857027,2.2803337077899144
1198,8.265074867628242,14.48721865241762,19.10375482351141,16.794276701190057
1199,10.000000000001858,21.469259081115226,34.10165305757872,47.57820487993894
1200,11.840414761643546,28.966554538726875,50.85038330517248,72.22030858242897
1201,13.342121034871202,33.67644986629183,65.00706135340579,100.87949444014627
1202,15.37453092078339,39.9975524477173,71.4285229376271,92.829532679237
1203,16.671344294850805,44.70468196377378,69.89175746510398,82.75393306921372
1204,18.12049457243393,44.89282838907357,72.7851029510085,65.50617561291097
1205,19.34463330666836,46.60594155534356,59.7084844430467,38.84056309138772
1206,20.42109811768585,47.87325135819886,47.46971665414305,6.02489472176363
1207,22.307563536928768,44.1699057383774,30.95154052782274,-8.706070366145383
1208,22.60793811925856,40.96249145108176,15.261161631694527,-5.76843796552172
1209,23.043248412013973,35.383447883293215,3.4610256122516674,-9.245367401592077
1210,23.31112288409084,28.202698744322586,-8.314051219208814,11.635074151905783
1211,24.452019506349963,22.0718958736626,-7.839724380054207,33.45958406507039
1212,24.33854956767762,15.129126003326014,-9.820114868077674,60.63088083480862
1213,23.731403021464537,7.270671307911677,-2.4245901947520707,91.58037236064234
1214,23.10560294893493,3.764724012648848,8.860992948064311,86.34769832536432
1215,22.57572277220079,-2.650133953028444,23.33164327029243,84.77178108251437
1216,21.625929170830755,-7.768748652511071,38.73357642362673,79.6919229296526
1217,20.62079715959836,-6.089258972214505,53.08849590977472,53.402865148245134
1218,19.59141305604848,-9.315160752154622,66.96612882941463,22.980095954822595
1219,18.281947924126086,-4.761642220641956,76.0563550318519,2.5442877761932934
1220,16.62392211465545,-4.529958701717348,76.08627369004935,-7.27640045341132
1221,14.99117188650422,0.4926136460528596,70.34188079419351,-19.8635182535778
1222,13.585908231772182,7.684095997392184,53.71877002688456,-7.53359787469217
1223,11.749194855810366,14.349686901176842,42.00026624597898,23.92102032545775
1224,9.9999999999981,21.289804296323187,25.49111431063456,48.65946039001204
1225,8.25137816157275,29.078346222009365,13.174782485499245,69.52144145166729
1226,6.517958014675785,36.01893953456285,1.54074394313999,91.04062464912938
1227,4.648707944854689,39.68627873893662,-7.143370876144907,98.83641695957374
1228,3.3616598888114453,44.77774335495698,-13.480689285231987,96.22169130184862
1229,1.987664503246128,48.66603906730763,-10.607956458484466,70.2020478136319
1230,0.0987411095313142,47.38070746952661,-2.7872716773383037,38.53778616270145
1231,-0.7339408960667413,47.54562673819154,11.561352529475318,16.474424362560807
1232,-1.6735439814102584,44.66879740355935,28.79786983055713,-12.858011296465328
1233,-2.2438881512267272,41.12906804429469,46.034656463882,-22.14140776251941
1234,-4.036226496972169,35.79980313851782,57.0863910454038,-13.031514944638232
1235,-4.421976591087931,29.04244187417701,65.85284658456742,13.026001554244733
1236,-4.79252402241082,22.042386275832527,67.37372324812617,35.39058101100933
1237,-4.66683367424565,15.302944711799274,72.92357670152069,64.23178310784463
1238,-3.219592381980531,8.939020961401214,64.64462160405427,89.1926555015213
1239,-4.067613782275551,2.651887513541144,50.92498837801127,94.29781282172156
1240,-2.4705729285361944,-1.346351101918227,36.53306531827227,99.8638955136648
1241,-1.966987211828364,-3.838523767368233,20.378842049320724,81.53923767802394
1242,-0.6773287365923135,-9.352312537380673,3.5381927073944794,54.51419774362615
1243,0.0766156665929642,-7.828942163810318,-2.0419504024967736,21.95602483407949
1244,2.046722406527591,-3.9716419174941713,-8.170891328742826,-1.839774536159368
1245,3.137870676905544,-3.3599815057026525,-16.26156652011185,-9.558995607469493
1246,4.77078288067287,2.661426218648373,-4.091011392774291,-23.947808287096343
1247,6.449371964291784,8.840009820087738,5.688134168268082,4.374200095168462
1248,8.15709466960345,14.725055132313312,18.364337868642536,17.262932247410692
1249,10.00000000000182,21.397694825896643,33.911731125771,48.573525760800536
1250,11.766401821541402,28.77027006832598,50.93111601841712,70.60723597380321
1251,13.676570868267104,33.98451276857416,64.37483783818598,92.977573439294
1252,15.44391160907975,39.2473860764954,70.52825380210047,92.7543741063346
1253,16.64670877477408,45.018297155506005,76.41955002778401,94.9303475570284
1254,18.615680574499898,49.837459784908816,71.61704989815706,66.28622136127073
1255,19.273081730217392,46.40856723729911,62.81034420864387,38.83851061202599
1256,21.11722857501934,46.05386715838118,47.988490992740296,12.15172326019686
1257,21.645610089513653,43.18670021855724,30.98401290059396,-4.5446924534618205
1258,23.230909333814463,42.35708688702084,14.422394472578508,-17.50482663493002
1259,23.100274170069223,35.07710219268167,0.9123431172481632,-18.91751046512831
1260,24.368148447050707,29.7794841451908,-7.603580784371054,11.70067136592674
1261,23.572983537153533,22.13263789902135,-17.45840865106954,33.84158595425798
1262,24.68287380586483,15.53564411487438,-7.959906500955228,64.67722915658995
1263,24.46068986194083,7.973215511932763,-3.804137794982765,79.36586530326792
1264,23.138363333992217,3.473603591828887,6.864949510195313,92.8260847872028
1265,23.23462638156781,-3.930466871445411,23.769961791782045,92.58902212411569
1266,22.06874069925595,-3.627263444324022,40.35871162368103,79.56595417491792
1267,20.589286849725696,-10.136913914747492,51.28194659691711,52.786644688624
1268,19.820114710662875,-9.03168223810556,62.008524090692354,27.036448918292976
1269,18.489977483516878,-7.769508620805265,73.51959384364825,-0.0552537109518098
1270,17.09746818931562,-3.300211681471236,77.52691734399892,-10.75063932339701
1271,15.036909196187064,1.5018183149006248,63.270792723042746,-11.878385850802992
1272,13.455148098852264,7.442169385852189,55.71236559017533,-8.147075494996912
1273,11.756084677185514,14.75417852488668,41.395150052652426,21.267313697293872
1274,9.999999999998083,21.30398838227172,25.7351155365387,49.25814598552933
1275,8.236416174283438,28.64194474651188,10.470215389382076,78.05023157065305
1276,6.44016658923862,35.94736769357682,0.1875956650628651,87.81862825585569
1277,4.92383584151099,39.55875652012862,-12.189207459066443,101.85521355844776
1278,3.2639554458236786,46.352149536499496,-9.116588537597906,92.09101910610552
1279,1.97310441840602,47.21403145750365,-3.3304410854118345,65.86408353431504
1280,0.5352070418514057,46.35428832403306,2.5496673990156182,38.39786367493959
1281,-1.0999959667687165,49.58854757663597,15.175707369509093,6.668219033632525
1282,-2.4134306765066498,44.71089624418963,29.035680510899745,-15.246701244302107
1283,-2.899760677986181,40.15808412567393,43.06272770859581,-7.944026243571955
1284,-3.4204777672040443,36.74353444803033,57.08308390059536,-17.44493055045261
1285,-3.2980440460627065,28.443316194376493,69.20700200301721,9.48391719702595
1286,-4.036465053983648,22.057610311674427,70.26391084081638,34.42944653597348
1287,-4.576379099536872,14.726473239760216,76.40891974702079,63.04831871647704
1288,-3.773217004827664,9.084183003842767,67.82386711146549,83.25286668080044
1289,-3.174994166233967,1.802727716982634,49.41822690824355,88.02315751156519
1290,-2.889085662755594,-4.579608561517993,35.83190667570557,92.945330281049
1291,-2.373863608881601,-7.974253912442901,19.23077073632689,82.12624247250585
1292,-1.40653829106593,-10.77529822673429,8.408769357132517,54.93429132965345
1293,0.3461567596990136,-8.33024211640069,-0.7662190225597563,22.64001746079252
1294,2.07858961328364,-5.806815723563609,-8.373297852241187,-4.050951711179394
1295,3.392542428209236,-5.266830814441107,-10.874231617053852,-5.686613604983378
1296,4.70019350817598,1.8387895631827893,-11.289073023133518,-17.927293841138166
1297,6.371367330382085,8.14482530906077,7.096267247332641,-11.224501065606283
1298,8.19842494642123,14.849323778019215,17.936437256938916,23.82385554559041
1299,10.00000000000198,21.4067096526875,34.48829176814472,47.01188040081012
1300,11.693754807466808,28.407801166943397,51.84927485635788,79.06538399528111
1301,13.533616027276388,35.04806097635786,66.2141471754681,101.76760039001036
1302,15.375426531247424,38.650854000874816,66.02255975872802,89.7370244880664
1303,16.735733145721227,46.19951243939983,75.39587433924825,83.554242589106
1304,18.63047973123621,44.810821230269326,67.72210084971212,68.21278845956971
1305,19.300673606645876,50.20714525693255,57.59789145929343,38.80444394580192
1306,21.312610835354057,50.0729140688629,48.99455660377639,6.883725857423279
1307,21.788188481450696,43.840662517256206,31.188299467670067,-12.741048277794109
1308,22.763318437843097,38.97722772163614,16.924021653092858,-22.95189816114077
1309,23.61030103327571,36.7340217043189,5.3603908828868185,-20.008443754364407
1310,23.84622278175209,29.79999605889507,-12.064562353364508,3.3044915417639587
1311,24.23184298575121,22.343437515040247,-5.943212301857578,33.396838232546536
1312,24.02875344382488,15.28598461721565,-9.67604677918137,62.04579882080958
1313,23.455247340329063,7.40177185871714,-0.456959574959626,77.76889211291211
1314,23.915327841793854,3.2862887511384717,11.130219234867155,102.82205994082926
1315,22.828400677532045,-4.8817694431750205,24.395745958816114,86.8605382168046
1316,22.07047415785524,-7.420242823802376,40.59601388167511,72.96937289079825
1317,20.423899730955675,-7.806573467454697,57.2637628398002,55.274789775735805
1318,19.95732237753628,-7.540117440844472,70.08490613879869,26.442570976203825
1319,17.978426907008597,-7.884517501546714,68.2631385611677,-5.351498534158495
1320,17.119650116119168,-0.9322164726097916,77.93912334218356,-7.8424540984336275
1321,15.107547620491292,2.0424252877296887,61.66033174678393,-23.09346493615212
1322,13.468499198062856,8.71551675458454,53.70691676428797,-10.484044372184414
1323,11.756523545155735,14.122274826221815,42.782578857914594,22.68591214854217
1324,9.999999999998042,21.333559374875133,26.156344346045916,48.056718171002345
1325,8.23664359399442,28.9740177981092,9.677492365808494,80.22200486423552
1326,6.372862125713303,35.53770279896089,-1.801631143438474,84.65806592447228
1327,4.999152332989667,38.59162207319039,-6.150561824946962,101.36599172774176
1328,3.4576378999366675,43.37291806825012,-16.014976745752165,81.74939573105394
1329,2.059830643742305,49.663555864220186,-11.536359265172798,62.52993310954598
1330,0.150923287730663,49.673704049545705,0.1045825917264267,38.6482179487998
1331,-1.0247728372882552,47.89533218375109,15.02280262283878,9.473817593838728
1332,-1.8842599532647315,43.79000300888891,28.91796207701986,-2.913148125530512
1333,-3.0148743116160475,42.884979235770885,43.4450608244922,-5.761674435701792
1334,-3.790907914964986,36.27032891397977,61.183410257268406,-5.9775536741406015
1335,-3.8080405407663616,29.91209784148961,73.31579022476909,6.255597399296555
1336,-4.612831219294206,22.34124974603681,77.08353702599047,33.24381636079615
1337,-4.376927951184991,15.274762342546492,73.74116832974715,64.64531967522271
1338,-4.336122223915018,8.76576109428319,65.30976753938798,82.83058792481452
1339,-3.5794764571754047,2.5341991364818988,52.89938899862851,98.26417124178246
1340,-3.298014039868571,-0.489891785225705,35.66472329663947,95.2720806328451
1341,-1.9206445975903,-8.368321015643652,19.405957537618683,82.76603925363739
1342,-0.798730163157753,-5.411045308492785,4.41312409396738,50.68651403750068
1343,-0.1466777357387592,-10.119859799144804,-9.59562267492582,23.97415763923804
1344,1.9499557477374656,-5.656585489310615,-10.316875541094802,-6.7153058020730185
1345,2.9214448837793388,-5.2778068302925405,-6.965995578652816,-15.696389295624684
1346,4.550251232367874,0.8799518791386234,-4.437881984381626,-10.024741152632316
1347,6.460442569805991,8.163842088051497,0.7536966466568025,-5.254986055132683
1348,8.258887204046678,14.322330471869003,17.146817446391385,18.20714582629184
1349,10.00000000000211,21.396288312600173,34.755580041601995,48.95365021424393
1350,11.758153191446135,28.687632622151558,48.83588306171235,73.8791679248647
1351,13.495741668857296,34.26533261954495,61.54893931683458,98.24771004957933
1352,15.061013231793504,41.62582952306397,74.71330490943484,102.8164586988962
1353,16.89253992335852,42.850542871147454,72.42017828218107,82.53798835022567
1354,18.34888448531168,45.529301879381606,66.18822315854496,64.67838075399149
1355,19.20315582532794,46.58537559480399,61.37927076136333,38.48311033883885
1356,20.813327799677943,49.81847762215827,46.32557349751135,8.314258387410899
1357,22.05400185818238,45.38842545544689,31.11297358942186,-5.355363639079606
1358,22.719768167235763,41.971332750277625,16.96586891699708,-8.606390407365652
1359,23.09920124009336,35.01942643817984,4.717687264315234,-8.198443222697975
1360,23.298634510544428,28.6392558639385,-12.447136616844972,2.543054883846196
1361,23.856628719114735,22.07022033570197,-6.496006538117896,34.773066735318686
1362,24.273500604077128,14.72258756631892,-9.515528375147872,63.69521857906908
1363,24.06003143734716,8.624861969505204,-4.931391587695138,89.81121055734121
1364,23.90052929330254,2.936475190152283,8.821350031108135,95.40732230377176
1365,22.434090705485357,-2.8289541237172777,23.29385619881669,97.26264993178688
1366,21.3534191260116,-5.87222418849597,39.6891257909689,73.12542520852755
1367,21.28496971391392,-8.30200413615556,55.50526241133268,52.77550228447908
1368,19.81789246904204,-6.771507430819352,66.23602488548323,24.115855412076503
1369,18.59205993681416,-7.613225436399549,69.74670805127977,1.1612486853428976
1370,16.715370851528096,-3.788539645677151,71.60978950298309,-12.962459079330444
1371,15.004312885750991,2.702083858686784,71.18569970378311,-5.886897982634395
1372,13.654153619189731,8.58033499694819,55.88383005810267,1.161763161319726
1373,11.750001677822874,14.248322916412857,42.32388207469717,17.434481860292983
1374,9.999999999997884,21.54746060189194,25.349919609943942,49.83550014454176
1375,8.210166898643923,28.482207191342404,13.200860619848935,68.9244288777382
1376,6.401045655130131,33.394395204587425,-5.0943690147423055,97.54299735512316
1377,4.719113472406607,42.188122645698186,-13.465843171135006,90.85780862685736
1378,2.8948652836308506,44.18512742595963,-12.497477042636213,79.9694846818696
1379,1.9057439894394257,46.52638307157155,-10.600453305689769,66.39020441683778
1380,0.4145769301898205,50.31843523477819,-2.166793157093906,38.71760968464952
1381,-0.4435470162830235,49.92581932412136,13.930081644484243,15.649209601488996
1382,-1.82034121290018,46.87394200171069,28.851551986408293,-5.70274461387902
1383,-3.3762513196385573,41.96602797241529,42.44725082772324,-22.505221309506823
1384,-2.92810873323017,36.52536123701455,61.77412072119698,-20.68186327315941
1385,-4.179503886088437,28.783326886433706,64.45091173967964,4.663485429210724
1386,-4.696451885405402,22.272547720024544,77.14515472126789,33.994897755473296
1387,-3.5410967225140872,15.517580838873693,68.32099230592075,64.41185409435867
1388,-4.408947899604982,7.984485407178271,66.3535697137898,82.06506083875847
1389,-3.115855357074917,3.373451464517938,53.222303338611,97.58394942545291
1390,-2.574540044222852,-4.088426940098913,36.005231558381816,96.17550063139107
1391,-1.6325999112623857,-6.251108962844295,19.99521509593536,73.82545034322632
1392,-1.348435314369377,-6.276363964462654,6.762713642814855,51.47438735421156
1393,0.7592215568087592,-5.518935015689934,-8.87624643617741,26.36352239659283
1394,1.686364300283948,-5.553149647923632,-10.235377621782526,7.35996517493605
1395,3.249628531319991,-2.9453646864826557,-17.063786208496936,-9.164651522660796
1396,4.538790580323938,1.6161497678457837,-3.5376225600105684,-8.088782971769625
1397,6.57966411475109,7.275584283512684,3.751031758814186,4.260555410243946
1398,8.268843726351939,14.43642270057641,18.997248901235142,19.15863425469773
1399,10.00000000000213,21.55205599494681,34.29777660848075,47.18472079046312
1400,11.739753351965136,29.18833830963696,50.59231360433573,78.60334582299672
1401,13.54231024460022,35.85382020872143,65.23035465991677,85.73330934836761
1402,15.011875817835117,40.30354777169051,75.70264705636622,94.72068878088145
1403,16.783796860897876,43.78878715660783,69.71594224299969,82.94159534849032
1404,18.443902587118323,46.449101006441175,65.9568035839721,68.56913985948587
1405,19.570614500366425,50.64814162629759,60.41335450746276,38.64280690671676
1406,20.951454482553373,49.76943246189458,48.4745465883509,10.18576721798502
1407,21.817320096036028,45.323751366540975,31.131544294073453,-2.989343475849495
1408,23.344754545940315,39.72914982487475,17.015339867519728,-23.06307086647256
1409,23.99288147392044,35.56603273573181,-1.9569530473271044,-7.989845477901483
1410,23.24270787069699,28.2834421395234,-11.46059865659162,9.961383375991748
1411,23.63910025434044,22.24075596769292,-15.172617837991716,33.67815116830879
1412,24.732279403422147,14.72400979477408,-7.467595354255387,63.76472786615902
1413,24.4346545806161,8.170338920095382,-0.2554353757590064,77.17393805884795
1414,23.04583283115949,3.920296054533736,8.898043283438149,92.53873707405474
1415,22.946418160795425,-1.4414137287355049,23.63937499401984,103.32866192765717
1416,21.45110836120529,-3.8283192509324273,39.89967927091914,72.10112250325776
1417,20.716161447218933,-7.621266961783284,53.5174135841432,52.54648631528742
1418,19.286756367234688,-5.411501891090001,64.10303572174992,24.794068559281055
1419,18.009125388068185,-8.19816313048149,68.9152335309507,7.723438406252079
1420,17.13074197801405,-1.836304998152052,65.85478105105719,-12.427496999089731
1421,15.331112165255371,0.8655520216432535,65.17428645961212,-6.853765938174341
1422,13.399219687276585,6.548901391481934,59.312671401017454,-5.930991389016775
1423,11.802702279765152,14.766368477032152,42.50636927817263,23.906304448145008
1424,9.999999999997872,21.345111460489257,25.83991611769226,48.7696708601702
1425,8.195357448833368,28.26718403608976,8.31739659195329,77.9730825789401
1426,6.567267707749531,34.11332901097985,-5.3399069708603335,82.70174337178308
1427,4.692685586350858,39.578577442936464,-15.804709304347623,106.2425944266655
1428,3.1893935947067757,45.94412334474024,-6.627966590591768,94.78435403176456
1429,1.5794974519937934,48.95212362661539,-7.016569556439023,69.89902121780472
1430,0.7918097657108287,48.22006439231853,2.0199492151128915,38.55296303065572
1431,-0.4338948067425328,48.60826940865584,13.348115046062272,7.346326025791178
1432,-2.360215826695125,46.10230289081505,29.04013588422684,-11.892638146099046
1433,-2.245182555850173,39.00817610331867,42.78205396929756,-21.79546264204864
1434,-2.9163083257465825,34.74554844788142,54.1646114746648,-5.817154776428822
1435,-4.565455270181181,29.88165296997185,63.498103064528536,12.818039811696549
1436,-4.191382532980262,22.13934287010219,73.66403985491772,33.25342656813176
1437,-3.572083845502581,14.678734240838171,65.2639173219158,58.380358952886574
1438,-4.04686785710714,8.452142879342905,64.77203861899628,78.74535827330384
1439,-2.926171654463316,1.71971786676756,51.94550657457343,104.80337258878784
1440,-2.408188804937698,-4.184746486000272,35.85553524957862,102.28685692332093
1441,-1.7501568379509234,-3.677668570504583,21.90170931723422,72.82460637101724
1442,-1.0810474516824868,-5.240991843787324,2.558057712860581,53.864140030325146
1443,0.653943529216086,-5.555948609604034,-6.390163106733567,26.140185368358985
1444,2.076569298848536,-4.368308167967172,-8.879668150797094,6.33944521318319
1445,3.200184652462849,-4.746089179103436,-13.83856762118269,-6.33108765339437
1446,4.75487452020203,-0.0244111926309607,-11.540153591953278,-20.63843934340745
1447,6.489035090669976,6.763723333395502,7.863063508201908,0.5785651386255353
1448,8.144106140883927,13.995739166598735,19.177547680719776,21.85360302780848
1449,10.000000000002236,21.28630364636009,34.15202142309952,49.8476998351202
1450,11.798970867061245,27.72104333220797,47.28049200883058,81.148573764519
1451,13.429223775208936,34.423893986615525,60.48624247919855,82.05765619272762
1452,15.313942994193692,41.326488730144845,65.00447746522173,106.96986536712238
1453,16.784111076498668,45.59161188176452,78.18196700788343,87.42555767996923
1454,18.296188355033745,47.44267227214896,73.32417515156322,68.44890161791007
1455,19.97873276729529,51.09687221784564,62.87810297680844,38.65449556513919
1456,21.34667823610812,48.453339826462425,45.41322023134486,13.890276580901848
1457,21.685257177999027,45.11775092185113,31.06636726291831,-14.830502322847387
1458,22.683601427150464,39.25910243326047,13.313063565818368,-22.809694503496857
1459,22.844848811115316,35.81526105206613,2.652313383230084,-8.619785069959683
1460,23.386258690164595,29.56912348412112,-10.985256106578362,6.62102745436362
1461,24.759591588306257,22.059651038023976,-15.070403180815248,35.15634099219285
1462,24.016984037684203,15.14982084463778,-9.805004317453148,62.684895728530776
1463,24.529668239902072,8.126428405456931,-0.4246133129672742,81.9634860098598
1464,23.55026244277778,2.419900520300857,10.934861564032698,101.90975960451102
1465,23.338727581855025,-2.0850112676562134,23.60837060966425,102.9067683023346
1466,21.423180805033347,-3.650804662156919,39.89899500556316,77.67199099249012
1467,20.905345181951933,-6.435303910627269,55.37730375723936,55.15870578714111
1468,19.98896002576745,-5.992852546523235,60.83118385231812,24.71906874997208
1469,18.24445580341549,-4.684947111736598,74.29756378443491,6.69284440463661
1470,16.518828072149656,-4.098124421947194,76.8312654704339,-20.470826801924133
1471,15.045279977598463,2.68967582466038,67.81535375015832,-7.841871149877562
1472,13.423506080889696,7.898954477100329,55.81796072206265,-8.985778970006784
1473,11.798033240762583,14.102128794470882,40.58147750485868,21.17462789751956
1474,9.999999999997842,21.29989711678799,26.21953470504617,49.13772920244815
1475,8.227408978552946,28.990602039581265,8.602135900995844,72.72426659473055
1476,6.436584714778734,35.277887561434056,1.4604726359313922,83.61878360906803
1477,5.024641558446026,39.47727208221136,-7.75309540716772,92.84602727353452
1478,3.2221179405933293,46.52366946109724,-17.33355242353123,85.75246230812547
1479,1.4103651363149492,46.143784000451255,-9.782078532908804,63.48013120269907
1480,-0.1117671153569119,49.179378294010405,-3.2695989676381885,38.83968697252297
1481,-0.5823988064467329,49.25946675292357,14.824033319721174,7.991456974900927
1482,-2.394043544069195,45.861371571106766,28.95739709273887,-6.222211469801742
1483,-2.716306062505732,39.94681708435424,42.4386242683613,-27.29970435908764
1484,-2.8567014482220614,36.20140277583179,58.16417522541647,-18.52091477721605
1485,-4.214427004106682,28.342695511806006,72.19731552227455,10.539281191765827
1486,-3.591949758698185,22.19513824750984,71.93037322674851,35.04184338631835
1487,-3.973986690309968,15.111291641905115,76.06638171163729,61.71745280748566
1488,-3.4174572431818278,7.197725621508354,65.04567926190386,85.67792244129181
1489,-2.856824513253459,2.755874346324017,51.46783791404363,93.29795292381378
1490,-3.028774634539266,-3.719169762324693,36.31569169892048,84.7414056067555
1491,-1.4635844996298637,-5.509467354425663,20.110492596941256,70.91991410159525
1492,-1.2959196268358433,-8.306422479517561,4.083009914321039,53.20774504379256
1493,0.7576852792729216,-9.52419850518354,-1.7974052602740294,21.56603560218968
1494,1.3758301601050071,-5.950808141500762,-5.520441447502819,-4.9105782783081295
1495,2.874576009370183,-0.8543093433564479,-10.582858139216832,-5.82528088677293
1496,4.812057599161219,1.499763284449756,-11.654207062840626,-5.58498929495903
1497,6.654197571130575,6.414814999270343,1.175342521855022,-5.977362672932927
1498,8.289937207049544,14.874785910284595,17.600407986085678,23.673151046606595
1499,10.000000000002304,21.29127496893681,34.41338696474478,47.76830081637373
1500,11.742725039670908,27.7945424581592,52.12420856733162,72.14278195706967
1501,13.34995958944489,35.310122701486065,65.88078645497197,97.8862512614939
1502,15.085639297009118,39.48373411636344,64.61335760718715,93.0969571615883
1503,17.081417020629154,44.824876403409874,68.70386098365944,87.41738187381331
1504,18.646798299814257,47.55716535062379,69.83295896582743,62.30183544581463
1505,20.055160649402943,50.44805406748793,62.18651496436546,38.77731582099298
1506,21.084655597942024,45.41430448076545,46.73274477717777,12.38862383425854
1507,22.249473948373065,44.64147680121606,31.04679801962117,1.1764480064745442
1508,23.20471500078903,40.71527288683689,14.249013484259,-7.018856327486375
1509,23.08138105003276,36.23958007753218,-2.025002505699192,-1.8456420676480365
1510,24.40069595729274,28.68853355722117,-11.179972583619538,6.835891003065477
1511,24.76799315828962,22.035172623542127,-15.092074434305168,34.10161237386517
1512,23.575187155706796,15.419060611161251,-16.764829625693956,60.89609407550381
1513,24.253363312293168,7.142534830888232,-3.514803763844803,85.7002597888695
1514,23.862333681477025,3.7938153423346392,5.803676322036157,105.65521929957386
1515,22.95799001625917,-1.519841150732404,23.360639495385275,96.3175385702398
1516,21.643888090289007,-7.159788014720789,38.70438784633778,75.58918441976721
1517,21.109979475440028,-7.674691769454871,51.77715030900333,55.06516935005875
1518,19.963156091639128,-7.231196497495347,62.09182560621303,22.6102698440312
1519,17.89797466880042,-7.166031896898346,75.60031253361794,3.7199521949172336
1520,17.025125994398067,-4.97757373213431,73.48845147717883,-8.68301224177317
1521,15.39193518755907,3.495078393948873,61.751820357107135,-12.350491260802904
1522,13.366685997994162,8.40052031646684,55.258487712622326,0.9073205887062556
1523,11.85171092634841,14.702008328201146,40.191603063131765,23.67668803299488
1524,9.999999999997607,21.289018431841484,25.95782038301497,48.94068397159205
1525,8.301080614168155,27.766777776708828,12.724180340344873,71.8938126209596
1526,6.452930496246627,34.337835423441376,-3.942228454677839,91.56210151282076
1527,4.972539723164925,41.94995359371899,-4.60321932319129,101.70046448433943
1528,3.20966934512178,43.55761516740228,-9.128821184928825,83.94145483217375
1529,1.8243097984423875,48.58890236833399,-6.933541039287029,67.22641977930363
1530,0.3090393773464903,50.15390700904456,0.4617426282732175,38.364332529480535
1531,-0.7843225162048686,44.87121896687252,11.981292930460448,8.6375745347748
1532,-1.535336255505138,44.44612351495991,28.930335156159497,-5.016266550195198
1533,-2.413532877026414,41.7562115824604,43.66417167594278,-16.785673240606037
