,TP9,AF7,AF8,TP10
0,2.8116658969840445,56.04300112274705,-103.32760573686338,2.216850990314946
1,5.485604685883133,167.2667477732457,-262.8768205602468,5.576309116876852
2,0.1359271337050516,176.4815423883444,-226.9199458156997,4.78034053174752
3,-1.4306541297300246,120.63976805073104,-210.51427060390412,2.995381740293613
4,2.189639823612506,124.51408303068422,-315.65094856991914,1.837475556998648
5,-5.278377121936828,121.45232800513077,-270.60018372297986,-1.8924891319214008
6,-5.995860351465012,145.21873125475076,-211.75713595429988,-5.702993447120107
7,3.754900342355228,166.96913285088067,-212.67760209257176,-7.225272278466264
8,0.3759501834328844,84.58893806897686,-291.7246361821908,-5.429661722416284
9,-4.529240273756166,115.49447218509158,-306.52506644368805,-4.657914836733298
10,-7.273364750142761,250.890958430693,-68.73064519815853,-10.220722358865372
11,-17.03914898290381,166.7863451692101,-110.53229173960972,-18.8738948016767
12,-18.52416927230015,90.8408621290182,-313.94813857054214,-23.778993099542447
13,-19.454222274636884,192.71237941882464,-167.241816034395,-20.61201662965257
14,-30.497158124036808,162.87465093264473,-130.13257823339154,-11.116893233356862
15,-30.24729449887448,106.60134376334828,-265.0111457203129,-5.186813718608931
16,-24.017199461714284,158.26959859640556,-230.08739264959516,-4.07577344428114
17,-27.581731989315017,150.10721455071325,-195.50097360219297,-2.206714928367319
18,-32.4761717646432,112.33458233787678,-224.0674616598626,-11.201580400175544
19,-35.738120938297016,96.24859740845568,-264.8524396583307,-22.7907128952869
20,-27.332381341062277,91.69959886349898,-301.1198826580294,-14.46480687469716
21,-14.572515846690749,158.6683063761484,-163.36621326181194,-2.3946335937765757
22,-17.043667139267427,157.8917728157503,-86.56492779125256,-2.7465229283886856
23,-15.657077677113648,74.12631962595333,-251.91319508516608,-1.7362889220880788
24,-9.19587807229368,161.15788313772646,-188.63358385900935,3.2805464558261974
25,-11.84769435162707,197.85741232604775,-69.54069663687551,-2.7740670656132806
26,-9.161932573015749,60.70391603191092,-230.76241855988337,-12.005438953301564
27,-0.2613346064249526,40.43896562697773,-288.9864532207139,-13.609351629798766
28,-2.2560263697000664,76.70208223520603,-223.10043028602377,-11.050246953189571
29,-8.060641849809599,69.82906724500208,-209.31658674951177,-3.655046213531023
30,6.885755899064861,50.47346592613758,-229.0329010682326,3.7415977648961416
31,21.77898223023658,40.86788544538285,-234.8699520168157,16.5327340508652
32,0.186558467845316,112.82263944471195,-128.542430914531,16.58394156707118
33,-14.139613988073506,166.37258643835958,-19.398536775916,1.0435257191488745
34,16.931200922642347,91.59719586929714,-103.80077319650444,16.562405976542777
35,37.07869521402608,48.06438225299644,-219.34015206350887,33.67079335236713
36,34.63394133438669,102.0595082577056,-146.15170098931412,29.87660391624422
37,48.6992624097893,113.35535952953796,-81.10759464002331,37.63650439371304
38,50.99286469413255,70.17216328655195,-137.59861642718897,40.022688878146255
39,42.03001140128527,34.94270644283097,-178.75007202319102,41.95509161407654
40,57.17970279178553,82.31346828218375,-88.66906788854976,54.46376149407115
41,64.89790752684075,97.99720869990416,-13.875440879695816,54.52777296237901
42,45.727639704147805,-13.200404353367048,-175.37355743563967,46.904265996968206
43,30.851228260502467,-7.802304017706774,-221.7561500010779,44.058845079069215
44,30.867403777617252,93.04317073746644,-4.087846069596708,39.03002425785826
45,28.637159548847197,69.31582971228636,24.3527181854588,23.760871323182528
46,22.779933424553747,0.9669560742477188,-142.22611069021514,13.12861096563529
47,22.318018537675016,42.52827763883397,-118.57032021833584,14.92561953411223
48,26.604423727044377,85.36385749050532,-24.0306979851448,17.92074663368271
49,33.07704589850073,24.783032632025424,-102.1619748538942,19.51267537087847
50,27.66121148412003,-6.820678959978977,-160.21229706262238,9.19227172794399
51,14.199783219500205,21.78319418625324,-117.2959352125763,-0.2431790881012148
52,10.238906205127025,65.34372574192821,-37.8220116404118,6.752294333842656
53,8.372850320204634,27.802048324694624,-67.21978637215216,3.543042236503652
54,8.161419974341698,-49.790108410670655,-187.4517735427362,-5.618203015579638
55,7.523016618654765,27.639441401988734,-75.89122138707899,-8.480664373209493
56,3.654245583750708,79.90310151837184,44.04622097249376,-20.39363779322821
57,9.29681588069434,-15.71817059692694,-94.97673357254826,-18.558992447811534
58,19.7664976637775,-75.56848691467894,-243.2243329026387,9.426072685216011
59,21.786511594483272,20.779609902354423,-147.22536866017617,23.80136640916453
60,20.92221639776062,142.0279152560979,104.84340388566488,19.23500714466809
61,29.526036885477424,34.75922317960067,20.92282034730306,23.313500980484605
62,32.549321461611726,-33.75960599645623,-182.67038698261604,26.874747376240062
63,19.36797695882842,72.5552917526802,-43.124532279442064,19.093674768434997
64,8.618080372665418,25.24421555295703,-10.648304070753513,12.412888101650424
65,5.42199874398716,-51.36969583333121,-160.4561978401034,5.094433624793055
66,0.4620556764878643,-18.96548428965616,-159.65081831539285,4.025968127616579
67,-3.6897647605314887,27.357733584329253,-56.65508413140196,14.36845249243197
68,8.355081848510792,54.3908561191929,21.15211165597429,17.56311189004373
69,20.97074338481013,-14.009852886752924,-97.31010480108672,22.855725696266745
70,11.869421442522253,-52.42848999038688,-226.79984664707445,32.27930154069509
71,5.852592947857374,69.3128247304121,3.531427842390258,24.783368931748555
72,15.018862549994536,100.39342029276304,154.87862743472215,19.27601959443564
73,28.011370589404574,-8.50938214251073,-80.12507627415471,30.30094138855748
74,42.15017556739531,52.36856946267653,-53.3310759801534,40.244835729025
75,46.093841257034,126.4510966546368,130.142830798286,44.98817869433879
76,37.42601018453661,33.25401071959641,-12.30267199332593,36.7175539231921
77,26.408131563206556,5.404055689636152,-105.0818207883858,16.552910236410753
78,15.253439441832596,46.22421320906142,-29.29931298189331,10.416405465695789
79,17.79940352320682,82.30121106101433,45.59579926868901,13.972032105481048
80,40.63392711357574,52.59627401345642,6.612229176331312,27.08118584855765
81,39.21903494282196,-32.82748731342144,-148.04113425139803,37.70577207367387
82,-9.037147223532884,60.23252783803037,-60.996735351393,1.2499631746450175
83,-39.18753908912913,183.33572180510964,163.97399881808087,-35.64308147370866
84,-26.18392128241976,78.052293953544,61.93234729429241,-30.33956276033496
85,-27.67014663938062,28.59067321656039,-103.52053745568264,-33.87603988086994
86,-49.88235284368966,121.98991204216144,33.90395494794939,-51.20553480401577
87,-68.29256683469248,85.81609303457662,67.63901214546058,-58.91498310935276
99,-66.15991109193055,7.824887551309075,104.9795160954818,-42.51718903348956
100,-45.62376382079674,-15.88022770464886,76.09235917381011,-23.602388497118227
101,-35.290579504229754,-3.3812067167600617,119.26576837641188,-26.28249553457863
102,-32.41183419014669,14.131887367519084,155.09812135144605,-25.43104354614843
103,-30.689622564299498,34.78561406861991,213.4448086998891,-17.541323084631586
104,-17.185145975823616,-28.441952461376783,137.94412706582807,-10.744159668349312
105,-10.949048951426448,14.156127070309594,170.92511091928463,-1.916451400615188
106,-11.820877234626096,117.01678623643238,378.7344329933403,-1.4310675756751152
107,-2.6908039991740225,0.4662918832036666,254.57167652528733,-0.7150936517973605
108,-0.5502277564773976,-52.60469819133869,75.41360375122167,-0.3417254120649886
109,-6.374651145404641,50.66387306764955,207.9108034917153,-5.533590670998819
110,-10.399804972536003,34.97135668649571,247.9333477175096,0.2371921543162898
111,-5.241829814553057,-21.501779925602023,129.3088542262558,9.04056108379882
112,0.7946903391693922,-14.128556709270924,51.61247106955853,10.72257235876532
113,-7.284071426010087,20.13326176989358,100.8212507996941,6.914688410175586
114,-12.299370476688637,12.321801247773692,153.1010777935153,-0.7214013540833548
115,-6.395732164312904,-33.1135977555532,30.946304010692984,-0.3791843663129839
116,-3.822376194683784,-29.512803676188923,-58.77861040155403,6.721109303241974
117,-7.857186812986583,62.234056899673305,103.03360799863005,9.380457774543174
118,-8.791023286748441,100.1990877512144,220.1591570356395,3.633960140632553
119,-5.569805010709388,-20.39654892042745,-18.148739047697745,-0.369527771948924
120,-6.1304880998980025,-4.329686797456816,-89.61224317189772,1.92259267040572
121,-5.289230066537584,82.71291105274577,64.51353210036177,4.583515627102315
122,-1.9379450496855952,0.4091651800554245,-71.16866637929343,6.368473658654693
123,-1.6745777173136958,-17.38408170209732,-145.66963310912251,0.2836993474411429
124,-3.7347264340814954,29.63292582030408,-29.237965266918764,-1.3332888765035025
125,-7.234960674988088,23.35806282993872,-11.602160885115154,2.709606638369223
126,-1.797469515453031,-12.54746933223214,-55.34266326879151,-4.765659870314266
127,6.658282419993611,-49.857905871002,-92.1691318852827,-2.980539381318522
128,5.573558643112847,24.04495035740547,10.702209030860104,6.3389261799839005
129,10.649676151935637,97.8816717818845,211.8829840607941,4.635249816648866
130,16.407086826847262,-24.62866702175233,155.0558382991003,9.147421671998018
131,18.3981719759322,-127.05897482077124,-40.14037340565119,16.548493878848603
132,34.87189918093918,-24.52093920612242,127.1308169690892,22.20784514911975
133,50.44213367868906,9.238416236359626,317.9329337032977,38.56727686792692
134,55.79159447068923,-70.65668196079787,181.2919396747602,53.796642972985865
135,67.98675232565074,-37.95819433371071,174.62971533089876,64.32641979840992
136,72.81272368734608,4.707314918283373,298.5086344063748,67.75760407244707
137,54.19905296358229,-54.16523542930372,259.42779648210853,51.716282455368855
138,44.91921108714087,-103.2005219901912,153.6763702512253,38.10819085305411
139,47.80318272416298,-76.83812526753172,150.87610845756717,42.2584628794375
140,33.83348108539758,29.068554447265345,389.6976163883228,38.15244984363744
142,32.892706656051814,-90.73500269465148,273.1293004490435,19.23097958770086
143,30.24842245527907,-61.701229103375226,263.25074755214155,23.070452735119037
144,38.78174943358317,5.536699310760014,446.5022253249772,26.762685387015157
145,53.655203665412046,-84.8530822704779,332.0538268380333,33.80459553859873
146,43.334918415434,-115.03037994005716,258.1207009390928,23.749277133421856
147,10.768232667627672,-79.3262045168085,339.04003000212833,12.90642100705736
148,-1.0893172215055529,-65.58103237382602,414.4523250670172,12.408742593303032
149,6.133466117802527,-137.8371889987029,359.13179134740494,4.226519880292472
150,0.813232114780476,-201.6389602622949,214.0190465040505,6.964207666256698
151,9.701594832860792,-86.66703986085486,349.97112943185493,14.725701239825868
153,10.94195681162455,-134.78752190305386,372.4569691440556,7.497312991552462
154,1.3195425570229418,-172.40428794873878,246.50275245821103,12.49169424212596
155,6.311459510581699,-110.85034702299164,349.5574471342843,13.263125254590705
156,13.541528298939738,-54.67150621628389,447.9420890181791,18.44893394076644
157,18.682331371468536,-91.40194100723602,329.8823247968685,19.468651663897617
158,19.51735653302967,-102.57417934737168,242.51462020585316,12.719029808107734
159,24.68306727837444,-42.85718916496262,335.2997930699494,14.641022238167352
160,17.099142716391725,-72.26426429941785,338.04021679703146,7.051392431058048
161,-4.389484529092442,-140.63847539643757,197.1764115865808,-10.728379926757045
162,-18.196083542999983,-120.33131902443712,154.82249934738502,-10.370869170710648
163,-18.053716146285296,-44.6360279165674,289.3636644987855,-9.019931439415814
164,-10.40444090234996,-41.64201867848169,329.8053284063935,-12.689511544693232
165,-11.9329219694755,-123.83044500718825,132.73165158042684,-10.268460637707904
166,-20.124162867785344,-104.74148503586184,37.69971803179942,-18.37558448096388
167,-33.97646392792012,4.701038695173338,255.35046416148543,-38.10944103308066
168,-42.00050309729522,-26.25340708543081,323.8376315040514,-48.4309066407659
169,-35.10435732208316,-110.2392795670312,74.47882701526396,-39.36343706863408
170,-33.97525020758076,-28.120272144908085,90.41763695911504,-27.37086140122119
171,-20.183656467906985,34.8339014519006,268.567594477674,-17.190158779194462
172,-1.313077447886826,-41.29227647033986,157.53320667287335,-7.721157509509794
173,-24.735325431660385,-79.64256170752924,21.359128006268293,-24.12132430830752
174,-46.3289603779067,-39.64151531993412,67.23158940928988,-39.89125373637216
175,-26.972590945950287,22.11910749517847,192.94091737805863,-20.432154710542815
176,-8.859694573413435,2.709719054750167,170.73736617411487,-1.673282757819834
177,7.820841024415131,-61.60530410811771,1.9098403013776988,12.562128366411343
178,18.848213130206204,27.788100029923957,99.51475907699204,22.91340213236981
179,9.773521495748357,102.84483674913643,264.8921699307393,4.18199438677766
180,14.982596250551069,-5.266375425620936,62.48130222270265,-2.966999398333428
181,25.323828833194057,-15.520540159428492,-58.34885738207959,11.616650747739186
182,25.27920728771278,96.98603240854573,132.1051533978898,6.184199927542068
183,18.578432213382257,83.14670139923692,163.59254207881168,-1.1455198876610666
184,9.441606642898478,12.508710606954992,7.32319486211054,6.61286792797182
185,8.721454448857912,18.07613462023437,-56.97914587636478,7.643455968998751
186,5.00705143399864,82.3208633621689,33.75919643091038,9.228180729314772
187,14.407371960283854,111.18978261901066,136.96488099801354,29.297822746364545
188,19.371228725294717,59.2271021194756,37.2563665487105,41.116804431610944
189,-0.6077058886057785,77.54749637143686,-57.11424590833485,29.53323834455296
190,3.011797978553659,146.82132229441777,62.24258510116488,25.204658894483146
191,14.949964422297851,97.05207065667491,64.976780707133,24.09673510830544
192,9.930616801015276,30.2949504298158,-135.18800489476416,13.131602703550016
193,10.133684401633218,84.37236721359659,-182.2923610912403,10.417544651339997
194,10.995237164861464,178.82179588230792,12.91447338834405,8.452408692031895
195,16.19354718050272,144.47315289243124,35.175675938720815,12.353214311999182
196,32.31613954288696,79.79624425887596,-162.93555634643417,28.99493418745988
197,38.6283758543832,149.73507144395262,-116.70645614981186,27.36260393289558
198,32.46155817939325,181.5110775547801,-28.390080933459103,16.20631657834747
199,32.10749037311871,144.42289749952033,-124.415266654687,21.56950637586124
200,35.716706827213784,121.3081442588009,-199.48305731988512,32.56502467972314
201,34.77146386155982,164.87059267028235,-173.39631135715172,35.344789414142724
202,28.86232375399777,252.4166183860507,-21.015934761497192,30.987543501607437
203,26.34362105580476,160.56370032159612,-114.55897813278716,32.77343692629074
204,37.0319457973128,102.59061064897104,-316.991857822286,41.07272866198764
205,38.76120950289442,193.02156502590515,-189.05168488284107,37.02951270130143
206,24.57885655278551,154.9979690485634,-157.591593175428,28.504840190733372
207,26.36515070642781,100.14677360258064,-303.29630207503214,29.302180980877893
208,33.47857392833248,122.0989495057147,-317.4521170289954,26.30454628206644
209,29.85183194223282,135.0297839534469,-243.82840614928864,22.28297469261452
210,34.5955757020547,117.7971458279062,-205.1677488742862,20.757424669965985
211,37.07522498525032,69.07486286666244,-292.70897411892656,18.657943116486425
212,34.61499646869743,59.86416304833256,-356.9040694447467,24.42748343203129
213,31.953449190843457,147.88057723338716,-150.60642492445186,25.12714237052569
214,20.33437239943669,170.26296786218882,12.649805621127598,20.660644023912027
215,15.921175537413546,34.92437889589928,-212.2623203417752,26.94922397868504
216,15.29916146526375,41.371377823874354,-255.57687301619444,24.855540154232585
217,13.615208702016387,106.82961780624464,-80.20180530729704,13.072679410659475
218,17.743870394210717,12.045121282804756,-210.84956942498684,15.381182978519064
219,20.39726795459592,-10.869560984894632,-272.83564851188567,16.947117176292522
220,24.48694200531918,19.07665384211577,-161.09280045167543,7.812071592554275
221,22.582588686922463,-14.049858420388771,-171.58783665357623,4.251317504305916
222,14.041312341779305,-59.7978742599953,-218.18212624487933,1.0560457737228717
223,14.80526873744202,-92.74479473009706,-230.29267062747385,2.1485928105175844
224,17.20324060944199,-52.67830534488894,-146.46261943504214,10.945609885966403
225,11.019696958417398,-16.85055980551988,9.046130849048495,1.5667633491611923
226,8.42634128973964,-138.396584876813,-58.31665067293216,-8.801021754734393
227,12.119164620305355,-271.50252503249794,-285.6304915227229,-0.8267071261725505
228,7.452859758594968,-210.39625893370248,-172.51631752226967,-3.628291613029433
229,5.273237788053393,-182.0388743346557,6.62648994429037,-4.761617901938735
230,14.417584197130507,-304.64757918030955,-163.2215513496194,5.629917490550724
231,14.883580998282468,-315.8611887230072,-207.7624797853641,2.258773042492976
232,9.61023326857412,-277.2597630044911,-74.50606844795402,3.1081535296107177
233,13.152290154410366,-354.6005649508443,-118.00395727844445,12.872987200229543
234,17.747012968836316,-412.2005560416728,-223.1643035238376,12.001573531204484
235,19.03018339494065,-395.0951586437877,-229.6261278751772,12.962272369113634
236,24.477886741880862,-319.52087016031146,-30.772442385205068,17.599394382268656
237,30.460585312201147,-304.4273410155438,80.78968936856836,17.30416483191948
238,30.93744852167947,-410.2950046490878,-148.0870797019452,16.960226639246684
239,32.02623621961175,-369.7845046308357,-143.1071932060877,14.207215521470062
240,35.56905705436293,-297.1838628924452,56.02426897035912,10.06990442505048
241,35.29132369317995,-398.0444976435974,-49.78993389650714,8.271016875485657
242,30.06910126647745,-440.67921577813104,-172.44425031996798,3.2773690376925515
243,29.28728355487874,-396.5175467703957,-100.2792923185043,1.7859979848435614
244,30.938095653709752,-373.5769369420596,0.5420738306129351,8.953090498805977
245,25.070537980354857,-429.4137371717952,-79.62798916234169,12.534172745945398
246,10.61053138261559,-497.50899411085993,-218.06743683561217,2.8026031098124804
247,-9.120784661598009,-408.8615292983595,-82.47667393437587,-15.828907293762311
248,-17.069650982433814,-350.41397216916084,84.55604463606142,-26.1434904984053
249,-15.244394097950137,-466.3532636717428,-38.45439383760095,-32.82273809918843
250,-16.355930557198008,-522.0250728116371,-191.580126755056,-40.13885228254367
251,-20.234006927865263,-463.67140490585007,-101.06326934497338,-31.35917049704585
252,-26.600474594823027,-467.2560991430655,-40.59296060551424,-21.98852264181187
253,-18.919869565619592,-536.1082297069952,-179.54442287795246,-18.31393052075873
254,-8.008929034760513,-551.1648043438327,-219.55251145653887,-5.92647588904947
255,-7.38804252925911,-465.9307129951194,-56.31995286711026,1.5009921843884513
256,1.72730347297329,-426.5994841393549,39.70192045427393,2.377585317895864
257,21.371538568848337,-513.5712911186274,-110.09889583685435,14.629878066203672
258,36.40979039762169,-493.6176025473978,-152.95673814462498,30.743490955341255
259,34.88208194980689,-392.0464531041216,60.16460540087428,35.949516982524074
260,41.622279770934256,-429.2563736170996,111.4348930394044,42.565137769212015
261,54.82066226993629,-504.829213125864,-41.50221042416524,52.38163214895758
262,49.43107394834806,-487.07016119686887,-88.87768764223438,52.640336472104536
263,53.5909959337514,-393.3353975825012,113.59569244936574,51.17394690014771
264,70.59889798633958,-394.044720742153,201.2282931775553,59.13323700768524
267,71.79193022780964,-377.4403773928061,210.63797018514012,54.52043759559456
268,63.52319189491391,-435.6725284939166,94.90518926340155,55.93330955514102
269,52.31744085212995,-429.8905844890978,67.33919083466753,43.72397261965671
270,51.328504660086764,-379.4569735981058,126.85689714038745,38.846772068558494
271,53.94339606146968,-283.0031607521232,296.8650720685255,41.58614509465406
272,54.63765410869382,-337.596648237668,278.6626180855092,37.7247713458637
273,60.44261908165208,-452.4236900291871,19.41257062368095,39.61017669302237
274,47.00194847601961,-327.20992271834984,156.99721430405043,37.28834834933514
275,29.14916022314719,-252.52255285764116,328.72611478343606,32.174105611178675
276,35.54652606111631,-357.4284570696764,150.99023119709454,30.325005321137724
277,36.979670699824055,-383.62469667289406,88.46121263457462,23.680392202542865
278,28.79984489621711,-279.72522156802006,245.2714138682932,22.34814149234444
279,26.65617802865745,-220.78793359175324,353.4077584622428,17.13724550776533
280,19.52868210285669,-302.5058761872351,242.19134180434048,-0.2148936876037623
281,8.65075103242998,-316.61024358682334,158.1143634233158,-7.822184163756901
282,0.6309890767734032,-236.9647556261625,271.2693288601004,-4.238928960287012
283,1.6499700451240642,-228.1804052994121,339.1688088616356,-5.222029919852503
284,8.496975932561327,-217.8049801688176,328.1758218097966,-5.1078230226412416
285,6.323812615082716,-171.5301973563619,341.14733596425503,-4.1674609570764005
286,-1.852981566276867,-162.81422933656722,387.6462573260069,-14.794341208908008
287,-18.52748484563199,-197.49116906174456,392.756303650327,-29.31898193489178
288,-40.470010115153855,-244.5097175713163,277.29650181205943,-46.49246814331855
289,-55.89761639223434,-220.85983544040937,233.4501178294886,-63.09109156249906
292,-66.8841333512537,-220.94010419829283,201.02608682657592,-61.56707418849692
293,-60.89970554089814,-150.98912408016622,241.14204467623492,-50.11816300704959
294,-50.17362384973967,-90.3672588719055,354.4705981547013,-43.57886981021147
295,-57.4237287822325,-115.97715375002008,321.93553449073806,-47.88744480133755
297,-60.05111179484811,-142.47685054433532,196.26908911159265,-68.52007558333571
298,-39.65660205652239,21.887507579289377,459.5101433228701,-34.37771528918529
299,-39.40694146673195,-19.50412344338838,479.8393065519631,-22.671140120219206
300,-18.67328038245614,-120.32301201520022,256.80893175303936,-16.626582045078976
301,7.425858439455624,18.75579223560635,424.1253405902535,1.581836233381182
303,10.86598093205248,-22.843413464957848,383.9952938293573,-3.1141162514977623
304,17.119318755270797,38.596271430142224,398.59544624667615,-2.0923080532229505
305,18.431864097889047,56.51532104657963,432.7150224392535,10.639882502058754
306,18.09109738498228,31.343776367371905,384.6299962961348,17.604456162720453
307,12.782916768090216,50.10995111044031,363.4358238310088,15.55648390125134
308,13.565684546527336,48.78511339658871,309.5344374435954,19.92331307285349
309,17.878755779660423,140.93952184682712,442.6488469765754,22.59440633439226
311,8.434602755281958,56.93382165918592,254.9623389187036,12.466087825072464
312,24.33416395977838,141.86130128684454,276.17924498335924,18.95095783020952
313,23.73934844561154,233.65330734371676,463.04704458860215,8.159665878803935
314,13.606767490855418,112.22917791095097,311.2374000599375,0.1001543742022477
315,14.598388811195036,94.9393505565822,191.15230149624404,1.2011769103410188
316,15.231066134234425,147.69265812810045,235.47467212181076,-4.074841069377726
317,13.71482808762812,146.09933898213785,248.04935611062683,-1.7107272965076843
318,10.475839493330568,119.73214609792922,183.12327762704808,-3.826970494759735
319,2.26601816364564,83.46742081607226,113.36927494802512,-23.30876836972311
320,-11.02486888304702,149.90659752569627,212.6882058577612,-36.64432890640455
321,-17.309744177997345,217.3799017526908,355.02434235962573,-39.72171841596719
322,-13.36464064818574,126.40983747597784,262.4177498044446,-37.623353150789626
323,-17.33729528222466,78.65568519791123,123.73650575138164,-32.636971393279964
324,-17.978256092901574,138.95046708814334,186.56514228065495,-30.33866817934904
325,-12.605479593825294,123.04932832316264,203.2244905570988,-25.29361821335624
326,-21.24524338619085,94.91876737226266,131.88757289550267,-23.680674022558375
327,-33.825761719053844,111.51932739350012,140.81074784789234,-29.27367153330124
328,-36.391741558822105,130.29576110618655,198.42430034955032,-31.342975761246635
329,-29.364353797835065,126.66529242671096,229.2553090552101,-31.313540363276843
330,-27.50597792552435,68.07779767812463,115.21645574236754,-25.210637521726312
331,-38.296882323600585,70.88115348329302,64.26516711630393,-19.066806109563917
332,-36.66130031840294,149.08031316724373,251.85941852617543,-25.018360276561
333,-24.81114097472164,147.43527467467356,313.7396210047882,-29.535130218340782
334,-28.503513810166623,89.13076208042912,166.8124013086781,-29.703820678027117
335,-30.790926542744277,128.27085059613455,194.1016048900783,-28.61591567765572
336,-20.895381927955896,162.7984769078903,290.4686536308145,-23.308385854994413
337,-20.6287102412316,87.65958245610818,180.27479277539533,-19.126340322050964
338,-26.74300520427641,71.88145437743515,112.93303457833828,-20.338849470223067
339,-25.17738281295169,115.07093962666112,173.19888718402945,-27.21315657388186
340,-23.079108243400697,138.01509798137704,212.52288877475075,-33.88568998686969
341,-28.27315629372606,109.01688492292304,170.86791615048423,-38.97528601187514
342,-30.358406236569863,33.240986423625145,35.20959039288573,-35.277572580293054
343,-19.37815899346606,93.95240773964906,60.92526586714666,-23.25929193358752
344,-8.405513783684,217.3980791363283,313.1346578761004,-27.67016308719758
345,-9.83133865898708,154.52382188566844,313.276346662431,-35.202175303624244
346,-20.018269655876797,71.47776372596854,86.06146536738379,-29.406558858638164
347,-25.799455613072496,152.47679906865233,169.0893091072794,-30.022279389871983
348,-25.42427762155421,175.61396964843152,263.5339535724488,-31.566423396317987
349,-31.87369381924509,102.88973091801743,101.92499388655416,-30.634453268372454
350,-34.279442654777085,118.36256351970952,84.74678503989708,-35.263833686942235
351,-30.12099257207592,164.482144847163,176.54478294792352,-34.49663760222029
352,-33.20164893331821,152.37652311613783,180.84306672553063,-26.24175584979821
353,-32.33304232178489,93.44634085681172,63.57688844751101,-23.574694356735563
354,-32.025923357956344,89.3587069013156,-18.146005179092757,-33.57100238191197
355,-40.32408949825913,188.7209781128331,163.62239090475487,-43.81189011898823
356,-40.12670949203312,202.88098930260455,275.90851373551413,-43.06289854989154
357,-32.1354047152563,132.53367636421171,123.22211227420485,-33.88163141554105
358,-23.12348551818286,167.56933574465802,87.9912002113997,-21.406702471518656
359,-16.917777278402355,203.21718040283304,195.963522721082,-16.639778120006667
360,-32.526385847479105,132.62742462963797,128.45519430894635,-33.89433064527111
361,-47.88277448160807,106.88798734504962,11.340017135051312,-51.57622802493279
362,-33.86704134743195,161.36107827055093,80.86901616322575,-35.413214850006625
363,-27.97229924506973,183.33073044990303,134.04344271236914,-22.71019367905683
364,-34.01334555709036,144.48971886634536,63.5327480204578,-34.25727334432304
365,-31.85445673720096,67.44158002763288,-74.19686531237676,-30.10619254264748
366,-33.64764650876168,73.81294765177154,-139.57244663723395,-20.943055721436394
367,-27.666392965329575,226.4409608071437,145.50564776128158,-24.418986200238574
368,-15.8246292162803,217.0279377204461,247.35893898674112,-24.33056189023773
369,-4.35612363126711,75.15686695472687,-53.6774976013694,-13.967082609131468
370,-0.0112337600148748,171.58866202900026,66.09484465308196,-5.122835582878906
371,-16.45171066079638,218.1180501299896,220.4785688991324,-11.06633303797571
372,-22.16798169389949,92.72530365020792,-25.35041092472966,-13.663894032448296
373,-18.863138889690163,123.90293438445224,-16.091511634222115,-14.693363496073289
374,-25.652515558729647,168.31353044359275,105.806497042282,-20.83515001667547
375,-23.9267378145596,122.80672764549672,49.29407164236181,-14.218891101016196
376,-28.015718308917712,87.48290189696854,-40.54943586517038,-14.561670920142204
377,-37.70195723840152,77.60227603348903,-106.15102961007506,-20.49084353336366
378,-31.136824050132414,149.91640731191,-6.30897391376493,-18.75902707880596
379,-30.01427884801524,182.8531720396495,97.48701751048792,-26.755707544856705
380,-28.07754945755005,86.75902779129683,-46.41939641123463,-18.75069208399509
381,-10.134945634752512,57.871000949468,-185.9215058206464,5.329507255490171
382,-12.8865281433973,160.1529574671731,-9.47604206186952,-0.863531238923315
383,-28.684804288699524,159.0025268554018,86.88853450323222,-15.428701106109656
384,-26.034614476229763,82.532002544438,-103.7454830786446,-14.093321956228465
385,-22.605383443267783,158.35685099432885,-20.5462537779822,-15.00014163024025
386,-19.80191755841952,181.2052377914224,139.03236330789514,-9.72219806240173
387,-14.098586943320695,77.91567195604148,7.048070107237436,-6.937905131140724
388,-23.24095428470173,57.18077164486749,-53.10773140145466,-18.53927457745885
389,-34.68251655274071,52.04034010476608,-25.09889497119002,-22.73664822295541
390,-32.02896952847368,74.99062628872343,34.35251508228248,-22.27903038135264
391,-26.63373273279285,109.70494032898569,120.39437303232262,-24.39403167855926
392,-21.85242766243755,41.11758592282422,50.04056006064639,-21.249898253387077
393,-15.112749931926372,55.40950072472333,73.92143025598489,-16.54242166111362
394,-13.18694753642194,134.1022222082247,237.93784769874765,-17.433114625222515
395,-15.016835262358654,64.58497246197658,145.31330530939158,-22.12556064952514
396,-13.184554236504482,0.0290800960210617,-16.902106824913062,-23.30760425279732
397,-3.645712688332424,99.13334791909438,129.8522807189729,-20.601757757656745
398,11.229282411164604,192.81335475778903,356.2345501823001,-16.092129890603246
399,24.16787106380798,103.63508114701835,254.7686526265461,-10.2306688480312
400,30.65109627801576,25.66200517915422,51.89743536518654,-2.576794355525635
401,27.92162772998563,98.49998749818768,160.7102100340417,6.299332238937495
402,18.462432461674325,115.48722366068978,278.1462509512203,8.488207620684989
403,12.577740399137838,76.52693949540844,184.85161936515945,11.170944986020912
404,17.119802997010993,78.22218638472259,137.00265991245396,23.051683396450244
405,23.390161833754973,131.06265377029194,284.5407781492686,26.42528017575387
406,20.803039200895,154.0659960276098,376.36421972396784,24.99295453558443
407,17.636475290404633,74.78355120832566,188.060651725973,28.665720578137552
408,22.459144983935403,115.69847443216712,192.4238528317073,25.15622763813008
409,26.319489575806077,186.0256121667044,348.4200908968924,24.97978527651867
410,26.70829906253493,97.58891082493938,206.74395518063105,27.21512324624928
411,30.005988428543787,67.66846916245413,97.8356950331945,17.21868302213261
412,24.87070323023363,114.64588495963837,160.53051481605507,5.396229653764749
413,9.968548010307131,118.0456826868758,200.1138472687453,-3.987364726373926
414,4.359008929925039,69.60535089802579,124.99506692937577,-6.403205722221173
415,6.891303384385537,22.121450926555557,-10.483288964140227,1.2974578792636748
416,9.878127394214973,68.60622435758705,29.69012103427667,8.91898193769157
417,12.40151370834792,174.0719912435743,262.84464234812185,10.659193342959044
418,4.870924413640751,142.5206790017255,303.3678764201468,-5.371156621462433
419,-6.804711877630325,29.28679539635777,53.45007598341908,-25.85707184515195
420,-7.299020714388462,87.94742504204623,97.63616254914086,-17.955086344882147
421,-12.157310618029442,120.6746953909751,248.93918651738204,-4.77885768856504
422,-18.49088275516988,33.32127626196598,76.30900971312076,-2.093617713922868
423,-4.712815362669062,52.87131697262521,51.97126553626731,10.639572008454708
424,-3.577526414068416,73.95690314352396,154.78202077629976,10.912945885647789
425,-20.72240775692626,19.022889303654665,106.44510318897665,-1.219283685204573
426,-20.377692857407965,-18.789820280100685,9.252697595395148,-4.074175105779432
427,-21.50061548978556,-18.074183949676808,-49.65489701996557,-11.499896212422756
428,-29.49231196907931,75.75279600830982,157.0402518035844,-15.26183717447566
429,-20.666245046071708,108.72103957633954,345.585310237715,-12.749975366750732
430,-16.353716859593987,-16.467802651051898,92.63250446808524,-13.080029812059363
431,-26.112686916196253,7.898929856484756,5.794192611938343,-16.30496199350455
432,-25.95253628192586,81.45513843285153,205.40314685483463,-24.89984722950612
433,-24.48234818028868,-9.2629283851129,100.22337113320827,-24.86088324166485
434,-32.389983148430474,-25.28726857865695,-33.35410067019984,-23.967684844508767
435,-33.471210630727,20.408890929771587,44.614725086372346,-29.615050204418367
436,-29.631437076313887,24.09329891431844,106.2370496559888,-27.250782271526987
437,-23.968532414350197,-13.346066830912603,30.08815477625467,-23.140391759108752
438,-17.381105916196248,-41.93708766734926,-63.07850211812183,-23.077277134289037
439,-15.393190736154793,45.658554626163095,73.76974878646433,-18.68351923956652
440,-5.53141840652097,72.09935495775426,149.18401884636842,-6.610592789191287
441,-2.529245539742988,-7.270851346838754,-13.00281373085454,-4.296584240277298
442,-14.12176550392178,-27.529821114207152,-108.87396815395914,-8.425354936189251
443,-7.685257181932684,47.69191148225218,-26.62566943955608,-1.628667026758194
444,0.6068761713686399,145.53317813470494,179.52300109458156,-4.940317541564582
445,-6.72523804512457,75.30103015789064,122.97892210492864,-11.335609138855943
446,-9.3128846877662,11.017715591413436,-111.77687587146649,-7.963358918350423
447,-14.404851982108084,105.9261070783832,5.688690721290186,-13.36510792383342
448,-17.319935695180902,78.31802481523482,44.05298870801926,-13.639379397645826
449,-17.10357642514282,9.759896013478285,-171.37393536861055,-10.122626547934487
450,-26.31030521696084,65.25773855310399,-159.44178499281406,-18.7688258170092
451,-16.279199376469478,123.6426075999625,-17.611078588059172,-20.447980960656423
452,5.205992871604394,108.70716754172464,-5.345536493230611,-10.135242498567097
453,3.964074135496048,17.566646100371145,-195.7099185830448,-1.8308222807536367
454,-3.805468043865403,-10.398421357618645,-351.5376193097327,-1.8354098779673225
455,-3.774979522509966,84.95097330806311,-151.80966163775884,-5.149324439233169
456,1.6554909866536036,104.12523711012908,13.71941304858774,0.6010646077338606
457,8.93549439549679,18.43720778968418,-186.6512200620491,6.09614179545315
458,14.549252430937486,53.83658174722223,-224.3209148766473,4.178805075382115
459,18.534091736830305,108.81498441577423,-66.38587165507488,11.248319522681411
460,18.53280523372814,20.265591562492773,-191.81277570640668,18.101895681524184
461,16.132998804037925,-24.544331307173707,-353.3732068135869,15.525629131530875
462,10.160570522391936,21.28712983772857,-281.8518594596535,16.777479788841447
463,9.079443367751082,65.53613549901638,-140.55808528442867,19.119997289060848
464,13.81686950236326,33.428597321675625,-194.75186155876145,20.768657667242223
465,11.325947422737954,-41.69127990846755,-377.8333775028586,20.90769880951848
466,13.766244672471656,8.496028837340418,-289.5158705599606,19.30158265627688
467,18.58754147106083,61.67319332162151,-172.26449135271832,27.411037961399416
468,18.164620715077035,-27.41200459940592,-358.2228513946757,35.36895284795901
470,17.516298606118653,33.65721258189296,-321.88343833899125,35.08497390357661
471,7.17575757324812,107.86267098144162,-108.52595083601771,32.06813547378988
472,17.100540816318244,-17.87963646807475,-313.85570435225964,25.020898458897136
474,-0.6431787022738717,21.790378824051004,-359.94194470439106,11.755210762668868
475,-2.056230247108033,14.35320538416272,-301.9428918068297,11.331030818168074
476,1.7034932063543238,-52.929571268497966,-459.7924093888141,12.127018918661634
478,10.492127912701108,-6.850039954180829,-408.1788457692601,26.11753257876262
479,9.235719105112366,21.413631625589915,-228.45184421213344,16.79980650989455
480,15.537129377917154,-87.8037873180001,-437.6565507026389,9.558174118224995
481,12.05041524473927,-55.10988073248882,-453.4935392476618,9.680246702657314
482,-3.420505580637837,-18.28080967796268,-288.26965428097174,-0.9595359386003112
483,1.6677748722722754,-108.53711882192874,-439.9925151495263,-0.5407761964597739
485,-18.039454020530684,-99.66174056881572,-432.1784476642497,-18.27308677224209
486,-20.15654957611696,-75.30070278578205,-338.74032589094713,-16.852452596620424
487,-15.18090828435379,-87.32174855022458,-328.8339392072521,-13.388217397936389
488,-21.672636875795437,-160.9363359195413,-455.7938360949047,-15.548718201520389
489,-20.91953349072719,-130.335602390056,-440.3687771256082,-10.403818305843744
490,-16.55218597096973,-59.28735614061589,-320.0148408799432,-13.198484200576786
491,-15.71820365867461,-123.72376283345513,-428.5953014832921,-13.589220597903475
493,-0.0156645640963688,-50.06273405754473,-391.5800334610976,1.2028930233500432
494,-10.36317085439805,29.458725592470728,-167.38471328746527,-9.98817210883135
495,-20.79458387650084,-80.1159661047277,-347.0084731443785,-12.522044341894798
496,-24.72107769735157,-80.0032036312623,-466.6115005491301,-24.0588364682626
497,-31.434037797735076,-24.909184597898275,-341.1797641403973,-38.88055009045638
498,-35.98880260394071,-62.34459957439685,-359.3323366646655,-32.93482582748402
499,-34.73001125603332,-42.05761390918633,-399.2367748799734,-22.02147645462537
500,-34.80526065221056,-35.39298349781893,-424.1991480230354,-17.913577720581088
501,-38.62938124782522,44.62305932899472,-269.9156825430691,-21.96675954383681
502,-36.27293047311832,119.62704530614428,-42.473255584947765,-32.03655967107625
503,-30.310732456331607,-8.208828523638658,-256.987011551857,-33.02524278880446
504,-34.49316312748124,12.879717296978924,-317.89352733734995,-33.868746494234074
505,-30.99335073385737,90.7083451608778,-122.209507743828,-30.68270792660769
506,-22.84533979961998,8.244730629376136,-244.5063820076175,-18.534669264801774
507,-39.906571918108966,8.647833382419776,-337.04643377522007,-35.3286933915806
508,-53.26241114208824,40.87624584528385,-271.1243982245214,-63.0168397584348
509,-49.197213472856674,29.278707381163255,-265.3517998275347,-63.68463767468347
510,-54.67216026698589,22.74172467959579,-320.06381570221856,-61.18637808531639
511,-56.33699990509194,27.005341632524505,-335.9866060731001,-61.46394100881298
512,-60.57879399051308,85.80375288566574,-241.5078601543792,-67.86297948544961
515,-75.21290625739493,-26.707598742446866,-353.11310803098604,-64.80827360402327
516,-73.23523659416242,26.711761557729915,-290.16828862344846,-68.66430838010274
517,-53.4809707434033,64.76621457264991,-130.1274639805779,-55.84511864354136
518,-45.76909706622246,-29.987405814637896,-295.0880449642427,-52.55190279599629
519,-58.45779784198385,-64.46758379723178,-413.8625679793768,-54.70675446011592
520,-61.6791113553918,20.760195345559623,-261.09044616436586,-48.35969989007572
521,-58.82289582770318,29.59479699609801,-190.29927676729855,-48.84203480379074
522,-54.72521085169865,-44.404487835476175,-374.0495402240194,-47.64947636393481
523,-55.45816425740486,-18.317442077153828,-441.9420219925232,-49.94158406171482
524,-62.0243242153083,83.08842833142262,-210.8608286678791,-55.22372423336492
525,-56.96164399705594,101.55623314162948,-127.26182391215116,-53.93778992597072
526,-51.16376770124771,32.27071066899225,-310.00335363391787,-53.85246660900884
527,-53.192389073228696,39.24382216576487,-348.9284102385864,-51.32077465094335
528,-52.26366209218395,114.86607238731813,-209.71268101315945,-41.27789181760454
529,-48.43541545732296,88.7302791934926,-201.58647458907217,-33.95900857662491
530,-42.833603956562,48.87424845149508,-319.81856813281775,-36.24112139067438
531,-32.92355754110031,128.0919342035195,-281.98616607673466,-23.815401742598624
532,-17.572755741886795,183.5765827797586,-115.25729387858884,-2.461892612729571
533,-10.776541957078734,98.8522260011523,-205.00391974160448,0.4111647997196996
534,-19.06636886007618,59.83504412055481,-387.9257532414049,4.356108590975055
535,-18.952128371980507,169.05201615259284,-231.17442273022607,4.090174978991854
536,-3.81237060733838,202.535393935279,-32.74888018006459,-5.154666815855308
537,8.196522513811942,88.7149485105765,-160.96057537617162,3.488850792622543
538,8.411091580084758,36.52163760055555,-320.7244357354939,10.921503776917234
539,-5.011136439192342,74.17433026316576,-215.3494364679791,4.858466850637342
540,-23.696034815657185,32.15306495886762,-169.78214564733207,-5.898570802921313
541,-22.774311434361152,-67.9032152388827,-383.9313305024989,-15.849403772081132
542,-8.482698787469417,-83.18497215129901,-480.8102819141932,-1.1273141984565882
543,-10.154484869359294,-8.609127327450551,-283.8000990264118,13.596729272045197
544,-11.917247000004863,-6.331126834033057,-176.45665694307536,3.666447167255683
545,-12.725118591013596,-144.7143214152893,-422.9824270447716,-3.234529898763867
547,-24.63873687479645,-104.34194190066772,-289.8719517402351,-12.013225279544711
548,-24.78846194554353,-116.35989584395428,-155.34129324182868,-18.7214779855276
549,-30.99924557196209,-220.69166378327645,-357.1179822674021,-22.131202677075635
550,-25.895544964674627,-185.5030154287815,-358.89404194941744,-21.31616899951769
551,-25.79842214882956,-150.11356775910826,-197.7298002759926,-26.92714356214856
552,-27.981979342730483,-226.65345801436345,-247.03455101884904,-31.32086670261924
553,-31.455347630602773,-232.9803825837444,-305.6831277306192,-31.244372876375564
554,-35.80397671184619,-172.20268133532954,-210.53740822337568,-34.78326425072737
555,-38.65396921549109,-154.6659669065266,-150.98623110260814,-37.577129394136136
556,-51.61989587903372,-193.73301975481445,-229.8132437467575,-40.93415600560547
557,-56.969497902930016,-210.68151568772737,-258.8819050323218,-42.86904736074212
558,-58.644274865233456,-169.59648034535348,-154.84249608404934,-47.44663731403125
559,-68.05498844129033,-150.94094375352142,-81.35178761743009,-60.16250727501756
560,-64.41635637592117,-188.2198760053143,-124.04631783440708,-62.90975485998206
561,-60.42189342164784,-269.641591454274,-316.2048157704994,-57.30124927512952
562,-65.43441612941388,-231.37590751820244,-332.0234294626862,-53.88166586565785
563,-62.22923598361376,-87.01151885837317,-6.566357091534883,-53.51125759831484
564,-56.5454593700415,-149.12821825640276,-14.86586739961058,-58.07504840124602
565,-56.57373270543758,-228.61023016367108,-299.3228617957793,-55.01945593744313
566,-52.51526878977893,-117.30075972521443,-177.48847586335614,-50.32940847280406
567,-43.927606789337005,-111.17344968300311,-74.64483216963708,-46.033346992997394
568,-43.5130266991473,-180.2537906289799,-252.93776615709064,-34.55934776108916
569,-43.41783652165032,-157.87272501847474,-279.60662373993546,-35.64008944793022
570,-37.64252336946083,-117.80982956517256,-199.7397898202762,-41.95202131872429
571,-34.68852404732024,-95.19940241071164,-146.57384628802538,-38.5390434507608
572,-31.52654025281663,-125.95913126209052,-197.97202286776155,-36.50744016226599
573,-34.34523801642354,-143.13146293530008,-316.1247907606885,-31.982464512824663
574,-38.87375965747924,-32.577643135155085,-137.28502529207617,-23.357412039506016
575,-31.247751726434217,12.799961121752858,57.87621586211026,-19.236870294473192
576,-24.441959787000087,-100.83294663473498,-171.67706305114552,-16.869870472533876
577,-25.20894621645857,-73.93260469892994,-239.15498108044267,-18.165615595637973
578,-31.528359482166707,2.296578337438405,-73.81895204586908,-26.78191399217394
579,-32.50847144177533,-55.65503403963521,-170.03702196665108,-27.80461706224833
580,-20.74312998126697,-43.75868179346435,-197.4996218574233,-16.66422873424017
581,-18.007777920676745,-21.86636446043849,-139.9746339735575,-13.941483963228166
582,-9.799781473411713,1.087772113736719,-137.68981258105487,-18.48379909846699
583,5.459026189229917,61.55404924636241,-44.51737934118137,-11.97138509979959
584,-10.909168979946116,4.751885406090878,-142.0849996227771,-2.4782261889849906
585,-21.070169386803173,53.329886665800586,-182.65872526867315,-0.557925787903514
586,-2.870077733918152,197.21709688240665,129.0973744923249,1.675490033780079
587,0.2763245448222733,99.88698980747722,100.06387043371797,6.645493295898632
588,-3.254164818063145,31.322102725040168,-163.04353957250714,5.502319011331565
589,4.98570640746766,150.08948771993164,22.388527111150324,2.9314613509195624
590,21.012779353979568,143.91215291828848,158.83479197742415,17.257528204878327
591,39.65960726313642,66.14786388340872,-16.14406959991902,31.528160496971395
592,36.39646946474022,70.80664599942975,-43.0850622956641,16.70269493186788
593,14.049295674110908,86.45657906983979,55.69904355192557,-5.946168811926327
594,6.800179999070679,73.11288028489798,107.56182569265366,-9.181754509314487
595,12.560282276483122,26.408245190395974,63.531634845305234,1.396799012167321
596,13.587326872768244,-4.547892534988932,1.9697363274171948,16.15179417595209
597,13.77866531197651,62.86098215985112,176.2740808497183,22.673189601722697
598,15.046052519630392,78.92986923549324,303.9302453259006,20.83387569653132
599,16.227039924687688,-22.09205453074537,86.29017368657514,22.463880026349216
600,12.763858257897482,17.329793628421612,86.15596442157403,15.72589439630974
601,17.310828674393633,71.07308648130856,258.88609283883125,10.048695696299546
602,33.48248725098529,-12.581806936883368,115.83202827395873,14.065786636434495
603,24.250687658151943,-14.075131279067136,27.68008052790537,12.69434979284415
604,6.205342575820396,28.869141870061867,125.59304279508068,17.513752481361735
605,10.291614660218327,34.77714719006326,144.34643088839948,18.71473980158044
606,13.385183611244427,30.653859266545624,65.07852213364094,17.516354510793462
607,8.469088564688718,26.96869616024196,11.516641514375806,23.40447984614002
608,7.933290923607274,92.93350982805714,123.03631324553862,16.871385427890345
609,18.258274671723484,139.22752728196792,267.35391584644094,15.227265138892108
610,19.727930447246763,49.10255236236844,178.97042683977634,18.944345903408248
611,1.181426871204167,-19.615732972044498,12.240021483507007,10.29411416419316
612,-4.549500103836181,24.1479343281826,85.57396039599553,-1.0743722975166747
613,4.79191894728865,13.844411855679937,133.79134554369375,-4.253659879235784
614,4.389489894841972,-58.98534280771855,-16.81277410266921,4.868284784824937
615,-2.431754308337986,-71.91309989325237,-41.88135668588802,6.429595893394435
616,-5.093382389313774,-30.27365779422689,85.33994954638183,-0.7986246017244412
617,-9.328000703630096,-40.14187618379947,93.04466151539236,-0.4635646300885128
618,-12.141724748951674,-108.5401946862694,-76.32788771763444,-1.39504853769904
619,-1.4196825364779215,-90.816580475308,-120.41341880336404,0.5559877680789214
620,11.545809536299204,1.1188119755825028,81.54839423112571,9.43691699503688
621,16.763037419965258,6.864644339773804,146.04461195552722,9.93041111822822
622,10.790110299145454,-58.05016712134238,-44.160373584833,5.130474380974192
623,6.9972862245485885,-26.714659907389432,-49.90553268091753,4.755285695107887
624,23.79032559992629,10.343353606411256,77.94836865505204,6.358859951287741
625,22.805610205236007,-65.08174972678535,-29.36370785627514,8.78440650497214
626,2.5002193385880678,-88.76114378659986,-114.94712449330837,13.33561569286394
627,1.61233773175627,-59.53904122894164,-30.985807353630666,16.861662213836098
628,-7.034867240479798,-67.54747385508381,15.184282324276865,13.529569899576018
629,-19.784208825294627,-103.30506642197724,-17.021527979988605,7.81685208179988
630,-8.202811726616346,-158.25919586222153,-112.14128050068392,10.966553595266303
631,-0.2150863378919894,-134.85958464827854,-101.68994636135176,19.442444773303578
632,-1.3025935074401789,-44.55749081855174,139.8580506122671,17.577547600812977
633,5.965414907608647,-91.74191445461474,160.27583055431023,10.22007505147485
634,16.09462512146274,-180.6466317687882,-63.98133253445849,11.66065307322424
635,17.345073460935964,-101.30453775112984,61.31231728289277,11.875818718777737
636,14.49420913058566,-71.98641152866185,174.09797084145248,8.26987922450644
637,19.77539125131443,-141.45178736385424,-6.999933028127998,11.722031820972916
638,23.38780131828389,-111.92242554505356,-13.38227196317166,16.445380119228503
639,23.86266367323697,-55.11487622675486,95.24493488948792,18.649225134548036
640,33.90470916079357,-47.734267368214205,117.90505286864936,23.77944332556217
641,42.738610809698,-99.8227778536966,-8.282259851694107,31.241788368060952
642,35.30496094195405,-134.86477174574975,-140.01561108138412,36.56909744514269
643,29.171338545595063,-27.70242977386806,56.03163915732876,28.097004465933423
644,35.87839122788864,30.074513989151452,235.4101803759113,14.097490379499504
645,30.744384769786848,-73.92168354662135,20.7862597219646,23.227618163567968
646,18.98316734348191,-71.52695300139021,-108.14076752308756,33.80675817403244
647,18.43905676499708,27.63900316215586,88.37115087360144,25.10061247384874
648,23.58311878645327,-5.869158060988411,119.98926636530086,26.467957385641057
649,29.8328907082614,-58.04133456654381,-61.2562609273009,33.29798276539077
650,23.056613482214743,-8.18364437611308,-44.87522437982261,27.34394450104446
651,17.005468629766256,18.14613578922581,30.960706220939755,26.84565197332995
652,20.247324915457284,-10.56209784047678,-60.3303749691695,34.989755484915804
653,14.743157176009843,-24.01910663419403,-134.35180292185396,30.43034135980997
654,16.52312811362208,11.310710444580764,-96.05604842398316,18.405378186202142
655,20.358216181135504,81.51681955857202,10.327414830215275,12.013062747748336
656,16.57054378237808,51.78222267795354,-28.10092153539881,2.6503888787701726
657,11.097416436154164,-34.517204026225954,-226.61431850865483,-4.136442357412307
658,-2.328252665087348,66.46409631043207,-135.64742109691724,-1.9020975613384508
659,3.3230513486487325,175.6534341048682,117.79229289013892,-0.3823514887480996
660,12.333178592380136,49.557748722378165,-4.408401022199541,-2.460509650729364
661,-1.943426787358476,-11.493105837726034,-189.15429397393015,-7.68916199443629
662,-0.2502673822455108,69.5074220240349,-69.54814486438408,-13.16871898144018
663,0.3973370114690624,46.15849654772319,-21.09617765201256,-14.323143684712704
664,-20.379347842739666,-11.190529264626091,-117.97617653012276,-10.371021759259747
665,-21.01333649174194,-29.148811113554984,-155.3820163407363,-5.2270460308063775
666,-6.520879381947452,-1.8821047194069247,-110.91013970412314,-4.862151922250632
667,-1.126501953753177,30.09475901222322,-8.356587535701692,-6.096948707214324
668,1.895767273788806,-34.497996252728626,-83.24262328189798,-8.430977504118346
669,-0.8651679147151299,-31.76140744157601,-180.6684062895365,-12.82658334390726
670,-10.82460831591743,31.480709775001745,-39.74529381725006,-9.004525433469098
671,-9.716408270323882,-32.343646195251495,-54.69932618667372,-3.2791372624924406
672,-1.4242816382611636,-78.91446455789264,-235.43214916065332,0.8304303899640217
673,-2.400021926529007,-36.76383175421506,-213.0483556082472,13.202906002930831
674,0.3217226254928391,24.80546870455146,-5.496796558611095,14.05178816843545
675,8.0603027564066,35.480120520922355,74.21231275633909,2.7820203620940447
676,1.4575141995446756,-69.05073732638266,-160.14576566778123,-0.8734240418416448
677,-3.129853449499933,-81.80192384053953,-230.57446148712188,-6.340308725310024
678,3.833013771189144,-7.353622779715806,-79.4351628976874,-8.603216303919908
679,-3.350379476469243,-29.620942316018045,-128.2691213293001,-8.324628425471019
680,-7.332904485811014,-70.53572589089163,-217.93295927275904,-11.01895224355394
681,5.957436801836593,-50.716177710331976,-189.3323199832812,-2.812400911992881
682,11.516155515244463,10.073295643320307,-80.55226748343557,-1.9612681892467665
683,11.146727975894464,-40.0838692241814,-160.18984753615223,-4.720262830844149
684,6.237982783815824,-118.8803964634426,-379.2177696358413,11.051700676674956
685,5.5058768627932295,-14.17982373945415,-250.76911276881583,17.340784178115427
686,11.645176973950583,37.22593900654465,-94.44562093541026,10.64554696023697
687,9.211060118308524,-63.653471029829234,-272.22572563262656,12.405234377190936
688,13.48903613141738,-71.5163620908279,-361.5467873455491,17.66037984401919
689,20.63539109690464,-21.03132263571024,-243.35185171407647,19.915719509706832
690,22.21077481933753,-22.39276033290662,-206.4716406802181,19.550087991636246
691,28.41364708606852,-49.608901916770265,-291.5122096890118,22.643715025566053
692,32.44274846604094,-91.004966130713,-370.9007353859488,26.19443758844864
693,33.8353596185334,-32.850651941029355,-225.5124267514329,28.440364000445697
694,32.51169879408553,1.6924658857751638,-91.97036453709006,33.35273346345639
695,31.92385534651112,-100.26500872289762,-304.75755463773385,34.00032456486952
696,37.72123054839904,-66.13816874148324,-316.233319275314,35.61266128701391
697,41.0292315032566,-20.988939029630277,-154.4737086975947,38.00265524798306
698,45.89647789794253,-118.11299811140634,-302.1184674371034,34.87550686072791
699,48.134814837249,-138.29246011027135,-377.91272626491264,36.67565582488896
700,40.58367471088423,-128.16942912572995,-309.4912770774681,45.50435760768596
701,42.607861196564045,-130.6162036289461,-296.1437324916478,49.67545904923463
702,47.66739964892622,-128.2615868896246,-288.08837177068926,40.45309344027192
703,42.61825507471804,-185.2840968053788,-370.44801976764575,40.60684088175185
704,42.81615824793698,-177.73682064027523,-385.5824447735213,57.57527705829125
705,39.99420514609665,-87.96759811765514,-144.253765252186,51.60219059156952
706,33.73775292397477,-134.04647654783912,-97.10994226997718,40.79600824846421
707,46.50274638016708,-223.0321511735674,-335.2533165910281,60.88458712142892
709,64.84656563663157,-120.37880805064924,-66.94473467976786,67.65230196574703
710,62.98929795454024,-203.8857509279624,-242.36489116959277,61.27028207562398
711,63.38512180850376,-177.21960877021775,-225.5973174979445,62.52644075691933
712,73.84814372914843,-149.5457907114178,-121.73995030811056,64.89212126767961
716,60.97593873000005,-170.98258471675217,-95.5996815674007,65.29257907310966
717,43.88594746682793,-155.09562928881496,63.823549163062125,50.950003223726526
718,38.062832679308485,-286.6826160394121,-158.14189867605455,51.41276153922081
719,36.087624554522336,-271.3301144717261,-196.00771080423144,46.79379747569328
720,37.35518333141226,-219.1632528800983,-17.198275772156194,36.7185722765862
721,30.9416949483566,-313.6330421981402,-127.00805777148344,29.77573713491438
722,25.88241118332371,-320.49493843805976,-218.45583666977475,26.44372535625007
723,31.36609302746365,-268.1332495643292,-100.98724474641494,36.38567777199205
724,29.36373346153414,-253.8000648345333,-43.69656640081666,40.27249228552682
725,23.625184405653272,-277.2305714278482,-122.85360122774728,30.072130871471018
726,19.605219571618363,-297.2310414297972,-222.95707328012213,27.434016002574936
727,15.565901796217076,-182.54618232580836,-104.11778724053876,25.232297529117204
728,20.220260881760623,-121.46564375073648,73.45846401783638,17.798352053388953
729,17.188178807671648,-233.0306622241624,-64.37788450228982,16.79996843531262
730,8.18520529975649,-254.6300805383362,-212.54853996727616,19.717309190309606
731,9.423752046190202,-136.0266068968922,-12.516653274651617,20.304671783640515
732,9.605411180993542,-93.32126601901837,90.59586747316644,12.353214793489316
733,11.318253663368523,-140.79474311391823,-70.39345655729994,1.5665629603900015
734,11.110348222136963,-119.7928643852938,-78.04348034388386,-0.0548916331608779
735,7.504844176699407,-50.222880384884775,36.72774971555919,2.1969814898329787
736,6.022735339589417,-55.70589082222432,51.01177719421685,-1.6027428566594608
737,-7.595963028667029,-113.86099351779558,-65.00004805368371,-11.28785049909493
738,-17.825856626208406,-91.96721264580265,-140.42247370351106,-11.746732323721517
739,-13.268847480707336,26.93677831860259,52.65432689129375,-4.313038618129212
740,-12.775231495848857,32.1151116641704,144.68966323533095,-6.802460463484749
741,-13.39558721362846,-45.67713812156581,-58.64654581435025,-8.830054570513312
742,-10.230337643472012,27.383367360103875,-28.307813549996357,-3.313145254680421
743,-10.388020228594542,84.35317840380594,139.1548496419564,-4.026799639163073
744,-10.704266090644524,31.63228527759202,61.02971662895288,-7.262151505448855
745,-14.030693851877004,30.002507687546316,-13.270874927169643,-13.18452481518034
746,-30.737363434571307,50.16265425644815,36.35708246112336,-26.80948411661666
747,-40.12960365315666,56.45959180640057,75.43089858058374,-33.59713107638527
748,-28.369680651463568,21.09845354198478,19.92175448371563,-34.042004518501926
749,-27.752531097619794,-52.77009150036611,-140.8872406281298,-35.007766955241095
750,-38.87714986182982,-19.02496608532965,-158.24497303448152,-33.40976570505882
751,-28.69908672501333,96.91578975645824,89.25576976139564,-32.20979868801078
752,-17.22079643519828,61.32321171136573,116.30243138002696,-30.77524176298175
753,-29.956765880109742,-40.99658945365809,-133.91633802687284,-27.18822535709478
754,-30.922383424651343,36.029383457731456,-46.562266940949485,-21.504553331644274
755,-13.50675175577635,92.43955247895792,82.6384067289764,-16.688102381129283
756,-14.254531768907327,30.31332347006537,-86.81131605023984,-14.883811695326584
757,-18.364453920396045,38.56944357138127,-129.17854269128293,-11.49278724344913
758,-12.622343058756089,87.15856002108194,-67.67730785533786,-8.548104679153766
759,-7.7237283940194175,118.18172491481528,-6.413604478118941,-5.982345999975223
760,5.31760698108701,82.0961269182153,-42.74061577825341,1.3079165022354573
761,9.968201391980983,25.95589500945061,-231.7157289122697,0.0906405399437062
762,5.232999811822083,113.51158817857504,-130.46938734059222,-5.098981145478319
763,15.11359163792804,182.7219006433152,73.97026737674605,6.278858453501016
764,17.067918497952633,87.1176801645197,-111.70846010476816,9.923100458283445
765,-3.6336754265939817,54.0168824121356,-287.9740313080838,-0.81897810701048
766,-18.75372121034889,158.47744231205434,-91.68410459544975,-1.2359041806194
767,-12.907761358073913,169.57573573011905,22.12500537978485,-0.0301028409739956
768,-2.83436887426069,86.04894838365726,-169.28363049402833,0.5420018762233667
769,1.6898633890668862,128.64780029584654,-173.14605892886175,5.643040977302007
770,4.893677134648897,176.4151782407425,-56.91204446728807,11.01124336651992
771,5.47340415295912,104.33919398556463,-166.51531041995622,13.09776230744319
772,1.3750413481611758,82.26527150534093,-226.1830608347664,6.261102898744866
773,-7.7938584727817215,104.70110765681602,-183.0770688599441,4.226361674955115
774,-4.533726288413163,126.2068008093629,-142.0804140486871,8.342175747908186
775,6.990147728996817,140.90530251595192,-95.18727874779142,8.624715022102464
776,2.8783218470052816,75.9333809139207,-203.3124576628325,8.05537690629717
777,1.3042551944963634,99.87890649819748,-232.87758690980263,4.71368308737874
778,6.770794823416509,222.1876272824593,27.093788761703763,6.671120900136884
779,7.176598543068394,147.6860871622339,24.20868740585865,11.15382011444308
780,12.660991759388708,64.7182477102615,-204.7307581778732,10.251176607969684
781,17.138845294422936,150.03967619268224,-98.17809329234296,13.403656663023868
782,17.027030569210183,149.56475220108405,-14.724213881854666,16.308905657788273
783,21.355778835655656,119.4451550799422,-125.17391022885568,19.991079482482743
784,29.075689711782616,155.60257274564356,-122.68462827947224,28.05374655907508
785,38.13020550116198,163.84999643545598,-97.71078864182346,29.01216451491928
786,42.32969291124027,174.1922967536375,-82.06608723066165,33.28949487832142
787,40.71889555180678,170.4957702551037,-102.36720362471532,41.2237798810238
788,34.82514500035904,154.5064989272505,-169.20476679879357,39.112964206549805
789,30.33072491764324,262.3416737909429,8.43748731922824,46.00044197536772
790,39.997390732110944,316.2644217722118,178.55824869696517,54.10017175797839
791,51.57363149768207,181.0506344847381,-51.240687622732366,45.73390124144498
792,53.07676325144712,206.76371618919077,-101.38518437806852,44.0953912147088
793,51.90757537382888,274.6005672318861,61.62954586618434,50.090382222959306
794,51.017725095385686,180.3033840926364,-72.74961417921804,50.27926791040227
795,48.46985849447083,192.9110914072953,-134.66222707256384,50.50416741741356
796,46.49922357627656,230.7717062742449,-40.702015003873385,53.57006234221626
797,47.38602683815407,196.53241259325296,-77.30326469731517,54.13929005811224
798,46.10845449537737,181.9603780596517,-155.5193486368953,51.85269617009908
799,44.82100266654743,185.1919616977684,-173.1829725097341,52.2697640414699
800,50.75117093633162,239.69484941847625,-100.5817944870796,55.11173060792498
801,61.66387471719645,277.71315783960745,-14.3862361140782,55.3628384792828
802,56.12686499219853,224.93810998136175,-50.38236155809136,48.72833348280983
803,33.18057796865469,166.78169783111662,-171.07624932617182,41.05086478241719
804,28.38695398985874,216.9167480962351,-113.77526615175884,39.97697821032489
805,37.81489099224564,281.9469437063672,11.304698787396774,40.08833251037868
806,40.47848046041327,231.85998749779537,-106.10050821059848,39.607612376566976
807,38.60310492198914,232.5280065117404,-155.7903552938369,41.19520135514904
808,33.72715491167037,296.66052509937435,-34.817681298649404,39.491946174704935
809,33.904374926991295,254.4318193322979,-81.03744617546909,31.016364030365366
810,32.76150646083988,213.65115538006648,-203.9551488420111,22.211913359176837
811,24.359994620201174,237.6182791031897,-220.37206628877905,17.276108107413165
812,27.942884092160966,306.63943636836484,-63.293123256473336,11.907109090476297
813,40.89531615935266,345.5739155653864,51.028937976341695,12.656797577568796
814,39.23374782252358,262.26030331104994,-133.78964946896303,24.00178064522333
815,33.05438275489723,271.36609087418765,-173.97736533381976,29.643603886594065
816,40.15325968666002,343.5297967889346,-24.28064701694529,28.448990876495373
817,38.278640789329074,289.286435126327,-66.9082322854083,25.955635441525374
818,23.02047713001957,241.2476404607296,-154.59665085491724,14.213956482941285
819,13.418017935880926,276.87832163413987,-132.5205845721066,6.443698219081853
820,11.354040078411344,301.59609701810405,-15.131269134464674,13.142696620023344
821,15.461031372833531,205.65211046021432,-73.87637731723953,20.39195966132684
822,12.033794715593103,145.28418672643602,-222.19307282799852,21.67869830940617
823,5.061585274350364,220.3688523406163,-68.76992471434642,18.867278767749667
824,14.81275986728724,229.96789132570848,33.3418547490146,18.502550579898525
825,21.313079045328777,165.48453832278028,-108.91332635644358,19.22879457194358
826,13.384267361252569,118.788419471588,-223.8215434934245,19.66304241714533
827,15.671762308862526,182.8675729529932,-134.56413744878955,26.53981512779137
828,24.668064125580717,259.06587610719725,66.4376591820037,30.29070864891401
829,22.06107535038609,139.81614148803055,-61.07197788963094,30.006249793805186
830,19.331602309597656,81.19110316596925,-262.3644662500592,31.01321940252092
831,25.974750626657624,179.25988498702645,-89.24047917302232,30.983932729170192
832,29.63205489661777,176.79892394365743,4.812442051712424,29.56551306281472
833,25.68179201532621,95.35574048385024,-182.49832493904975,23.83282970963046
834,24.523536069667895,79.28435450885445,-259.95439073455054,24.96526740246918
835,22.933940504677597,192.6191857974045,-42.79096053051762,28.1604447781574
836,15.108632311632393,232.43596413731572,105.03387393685988,19.895223872445055
837,11.533980950771364,113.25559955928476,-103.89357039844616,15.381823153002188
838,7.93397400691174,152.17185677820817,-152.2845671691466,17.78304938710062
839,3.823448850598652,237.3361322088167,61.953753381967545,16.048990930605214
840,7.330465087085031,144.0210522422567,29.092870436841626,10.506562025693713
841,4.060884820704814,107.17378261545672,-93.50781540502794,7.352677776536439
842,-1.78346178017091,183.1603639908135,-7.180106029612944,5.72212918481091
843,-1.5457394600380212,187.02676218003035,87.2057789687533,2.741045820817817
844,-2.552797249285504,96.8713668663986,0.9575003592763096,6.107876357971691
845,0.4050178960897028,47.604123807512224,-112.8589318646118,18.509078227507416
846,-4.563083443557844,106.47231690771878,-37.56164806173183,26.28667342226254
847,-13.328782654658426,177.6263751136139,197.84568335697983,17.508214424189646
848,-7.055458196497057,107.83815712155774,218.60611363966015,7.118793602916412
849,-5.199988606094848,-6.839242567773908,-10.642664495389909,0.1971273405943066
850,-4.11473206046503,47.65348734520376,77.37726809433661,-16.15228223858867
851,6.109118076972663,85.05605776282027,264.921103436267,-20.31186817289563
852,10.778027624357492,-5.586796491872519,124.23691964615136,-11.04117565730121
853,20.28602614084957,-21.99365596054122,71.85110930912197,-9.614925467700232
854,28.86872539186152,23.21772593166679,209.40012297825888,-6.721470911579672
855,23.639319525274917,20.494967913255092,265.2942306811456,-5.2493858256493695
856,20.33928167197155,-23.2792688626796,201.90388998459093,0.3532017263351008
857,6.918541126942728,-34.41860547428951,149.66808180953376,11.580365905771032
858,-11.94053558894666,4.806457123253495,205.54066675389183,5.496943533187732
859,-5.815521366603207,28.76129810931161,290.8006911620032,-2.143384698079899
860,4.5272440812550485,5.062020895536989,271.8367759531829,0.5642835131147876
861,3.4204914388246834,-16.703644618857652,168.88363808160648,-1.193930556299165
862,1.293625762744341,84.64516748394817,327.50797980534844,-4.155877323122695
864,14.015638360928278,64.71595767233521,374.7622354149353,2.8500701766461134
865,0.4266577141243033,108.40728003159164,335.00280562927946,-8.090283150784671
867,13.889243594487198,102.11697998968884,429.968286792282,8.310063253622502
868,-14.17523510736646,109.15676698694006,368.5923810852692,-5.833638561074622
869,-23.72355027141748,149.82075149938464,435.5186412895564,-20.251631256192923
873,-8.355744665954262,242.99012996116653,493.9994469110388,-5.54687777464278
891,-22.91392627358437,304.4360813400708,483.0706825568341,-21.36217878496973
894,-25.39684199303156,334.8791082371026,485.11172797810286,-18.26162256335374
895,-13.985728638072032,324.9532324974425,410.1090136915445,-14.86266572785098
896,-9.733384572260547,385.77462388714775,472.718875399325,-7.029478237556759
899,-6.976162011385895,261.6763868215494,319.1687375800684,-5.866185998427682
900,-3.686463513120543,322.810753823258,390.0851504220627,-1.400264420255553
901,-9.837060263904275,362.7655398081988,489.957276780624,-5.058234672411345
902,-3.6236052302410826,282.58826095610857,339.52499719616026,11.60321740130894
903,7.173387754126452,276.8539416838903,294.2300634374842,26.11804131243844
904,20.45189021155238,355.84934897325,448.5151173137128,20.825180133688264
905,38.69239597767592,339.71979201678187,475.6016835370101,22.42733637924539
906,42.909185028402135,267.00777792558074,334.4463197742589,26.75399462756468
907,35.05307543935487,268.5440014584456,303.9024430764839,25.60390231967904
908,26.163449537707493,334.6563196189236,490.5179754071869,20.104523326735944
910,28.595109325135127,270.008604476694,416.922317573335,30.99640631728107
911,37.544238185335416,285.1904355282895,409.5823521199636,33.073823032318614
913,55.677664719347376,230.61486283084375,457.9910843167454,37.40011088177562
914,52.21555457293289,197.45746655995023,371.983329127077,37.374946298252326
915,58.58179850742454,240.12673299759624,450.76677965419367,39.45523013261845
916,54.17937026772415,226.62132450332865,478.2735303733498,44.15296948479954
917,37.5690874416614,177.91541713895276,395.41234246548265,39.05886783049209
918,44.56570574670332,144.11021916288882,351.56357233878225,41.71405844815308
919,57.44347843964351,162.970252786763,384.3132231822237,48.865114737069234
922,33.12293548701564,72.59017615090124,345.6095736064017,29.996742948249448
923,33.331773574696854,104.90819181269036,368.88379984069616,33.07673643459566
924,30.26540582883172,150.51016790652648,486.9175563608296,29.102428823302034
925,28.52497101703193,68.68268163176253,344.73427192121744,21.04779966600472
926,34.02210713329259,63.94901284901425,328.38353951089084,30.784306174726225
927,43.81273382582003,94.3966594634112,418.03100112173706,35.7848315332667
928,37.80703936901409,71.44201164320111,410.1623319098726,27.54396263574017
929,28.16204836859833,-0.2382878398057073,304.18698630901054,30.714554779347964
930,38.117801972082816,-51.14746870286763,183.08928805682808,40.623124292411376
931,48.886267488473095,52.74598797154613,325.56374687328935,50.32767621439416
933,61.177407764364034,14.602445442928,348.08485122025013,56.55860365356784
934,60.81529264646815,-5.108864375855774,197.53470825171095,60.58154801587807
935,48.90976438642247,100.84895615605636,363.4192713974044,55.02348002814688
936,42.864962733583525,77.16407965053804,411.9078077669256,53.15658213471761
937,51.92963211995084,-1.068362862803042,241.95720948046076,60.59637298900634
938,63.20041008578846,45.8248141782824,279.6796864187345,65.13552613178035
939,61.668290552392136,75.07658286066726,368.1460975925438,60.75446299067698
940,39.48439820698695,12.10867147706449,251.8772092815489,38.60504338575993
941,29.32625670894049,-24.42323992610909,166.3621991230175,27.525905725487974
942,44.25356359110447,2.528373290784657,215.0273249926977,37.05478419625433
943,45.53064133570297,60.84359211334959,327.74948151037097,28.897725708724465
944,40.69343830936123,23.451565359486267,291.0877690182533,15.674661319237202
945,37.46564643830061,-79.41233416344039,81.81099587702192,23.3387679507141
946,26.214445191901177,-0.8013369117397815,151.77720828005113,31.691831393167377
947,19.03645882452838,104.86530698556452,399.3100255667232,22.16827015194576
948,8.702468889765441,-21.41202835040167,264.65931441728026,11.391794889234006
949,5.603789179818705,-95.81334668304773,43.02789153531194,13.515008383081296
950,16.37998300063191,-3.971954315435141,173.7636521151289,12.212074251729064
951,15.480612984858451,-15.91868175053969,241.60838626441543,11.426682302262634
952,4.231304062413983,-82.45950975315645,84.77838303148746,14.103315001702867
953,-2.6608202586648986,-90.92333414568566,13.376132855657488,10.174234196427278
954,-0.6533477025222965,-74.29594718269072,56.34759468701668,10.64763461635448
955,5.286801247828407,-37.84032127354294,154.79535297653638,3.6245807095547207
956,1.851737030316144,-101.31728867418131,69.895088609308,-8.14555733295856
957,-10.492241076251958,-189.6109025639016,-158.29381690570153,-3.519222520815674
958,-17.658635550062172,-87.28329555108212,4.791096840985119,-3.569438070058822
959,-19.865028902480844,-47.23315118835308,158.12709666788578,-11.839706236089114
960,-16.61897679590038,-159.92177355231252,-122.7514526550658,-10.959537805407308
961,-4.612309713556897,-91.0489154276438,-117.20724922209048,-6.461393364268588
962,-1.4108107445936184,-29.1672715919558,64.68449633172713,-6.203113598108757
963,-5.218637389305513,-142.50370895152446,-98.55298507679254,-6.326119858393213
964,-6.000090170156909,-170.80832056992222,-222.22374748298895,-2.2899919463088736
965,-7.172326054860605,-151.42182301275898,-207.6075114735868,-1.32632640178781
966,-2.81283853869536,-131.28406789759174,-185.19215926667675,-2.1259175328887068
967,-4.326229030848481,-112.55616641207598,-170.0153745948337,-4.005619370640488
968,-13.957639213622317,-183.3596182581969,-291.97614542627707,-10.090946925542085
969,-12.416851810558,-152.97876189928502,-307.5531235681847,-4.399357465503272
970,-10.27503726410214,-66.78135740815196,-117.48752786265686,2.0624931807396933
971,-14.23498008021852,-178.2612909778254,-207.56486547202803,-5.627009054413065
972,-17.514017980196513,-246.08712945214936,-424.7635484214407,-8.982909640297294
973,-26.385575142106973,-178.44148764188867,-335.6457120466512,-11.983499321708225
974,-28.19958761136513,-205.2810269156471,-316.2487922739237,-19.09616266732337
975,-21.587396044516936,-237.8206954061752,-428.0224777664989,-22.242346477898536
976,-26.80472530858242,-217.7537041195901,-402.21934946626425,-25.40577883302467
977,-33.699383817089256,-225.37034604954533,-384.5865325471386,-25.657412452361317
978,-34.51881573814899,-232.0014216216514,-385.211955871433,-27.71170132723637
979,-36.505020775221055,-259.0277689755894,-409.35355859063566,-28.483390880777733
981,-35.46393808667199,-220.6924190979917,-394.57233260711655,-15.17409587142174
982,-28.76556243904633,-190.36552809132263,-204.4931320042815,-18.53678349024267
983,-21.48610831736005,-317.18474434292875,-360.5276651971508,-14.96529723756248
984,-19.37238932345645,-316.4146536515327,-429.1699377244804,-13.878988565440524
985,-10.598477279912911,-296.9641751939198,-324.80430604703724,-9.375643074978145
986,-8.177187531342497,-411.05458579736296,-445.227191159036,-3.0176513190963306
987,-32.55395911066444,-398.2636803846108,-442.00082906824537,-20.49051646864973
988,-51.18717538428609,-373.5751748057082,-349.4948764028959,-42.90863054592046
989,-44.95099389139796,-458.9529815104325,-479.47449544258416,-34.440520600182936
991,-31.10628781482228,-510.1303489777493,-445.8957366547547,-24.928903745749267
992,-21.14181258552708,-501.9168474957696,-389.02933807251975,-17.902180796983885
993,-35.04043131362414,-503.8202002077596,-354.8218137982767,-19.78326607795316
994,-40.562925143225584,-591.9648598692729,-422.458826177055,-30.749389967764728
996,-6.084651285724351,-166.8838446218269,-109.96756307209576,-8.246399883437087
997,-15.96047750696586,-477.651144747003,-318.2888986832464,-22.121758711450443
998,-15.834503583539192,-516.6116603182302,-369.7243924785539,-17.6504865768216
999,-12.497407137006142,-447.7114845576448,-350.93222779867983,-6.234491249793955
1000,-6.917090091758283,-498.884217453625,-345.9328790181203,-8.270416491297851
1001,3.0758155319640537,-465.7063954057057,-293.0144862553652,-5.890951648505677
1002,1.1372614382189,-513.8729727144473,-401.68510000274455,4.968934712146165
1004,1.6024729071164645,-412.0221947002647,-268.983798988369,7.284740931736792
1005,1.1944212272227333,-357.3626605974605,-97.2042890544526,0.3778247124070617
1006,1.38949460090015,-463.242227578914,-275.3349921353074,-3.917182782719408
1007,9.081321133944584,-452.33228800809593,-376.1325021676457,-2.5222210321837792
1008,9.2649221675033,-377.8825760747859,-242.67452297961063,2.1181520945873444
1009,-8.64592628885157,-429.04609564360726,-307.1342511815856,-2.011710223078012
1010,-17.852580829937096,-428.18056392740255,-392.191560163581,-4.795582425850284
1011,-9.048189308093924,-372.0611298208896,-308.17758722579674,-1.2302991146050315
1012,-5.296045652601833,-384.04217519349913,-289.0805120863224,-4.255213600788011
1013,-2.142839119224959,-414.38976937014377,-351.6296695621349,-1.3173669569333697
1014,1.389167665301784,-424.9473163255607,-412.7262875365559,6.4970101128587885
1015,-4.668727058056334,-339.3368518983334,-315.5347282799776,4.581401377785369
1016,-5.445074247803177,-289.4807860365545,-144.29917341377586,-2.522676085288367
1017,-3.804820888193945,-407.7726642951311,-257.8442607326142,-12.342845475252489
1018,-8.294211841276365,-441.5003334281646,-392.215479468694,-14.182568964633674
1019,-8.329773055971373,-326.840417570842,-172.14708001476538,-11.197833408072938
1020,-13.418135529295114,-327.7798973995086,-72.33578695042524,-12.291412883168505
1021,-19.09010619228684,-421.0005999630812,-247.2622011163912,-7.414596691916586
1022,-11.78319037871097,-409.8738067284576,-243.4266662272712,-7.322117461787002
1023,-10.722264903755333,-345.2651597201766,-98.00256951255142,-12.206114118764845
1024,-9.928203270714448,-368.0102273847442,-65.67383578456065,-7.585727771772554
1025,-0.0151034687623905,-467.2276277565688,-201.82634823027183,-2.1010553481712577
1026,2.4525132906032923,-487.3631204760459,-273.46840821465594,-1.425586363382763
1027,7.851832306952474,-356.2109360328177,-9.767719061404932,-1.649748005153015
1028,8.5355062142321,-325.13569595085573,154.13661380382837,-3.79494201172156
1029,-7.451262187216344,-448.8201127183565,-54.77640780445654,-8.193047400846808
1030,-7.7607205175372656,-400.6023677428602,-59.897769759380026,-7.408186287509579
1031,3.180611057886381,-322.30192006510333,89.64714613457909,-1.4768911305054644
1032,7.064610676792199,-409.8346313245129,-6.359097337524872,-0.0654055177856207
1033,12.845480901929932,-398.1373524876544,-17.03588589213905,-0.8989062979771916
1034,7.62768222880868,-305.0380269382731,124.13989912898978,2.9829640922584986
1035,1.1449220927779606,-297.20832502498524,181.56339128670515,4.379789788328708
1036,6.554874933012343,-346.6229874698329,146.58036343514686,-1.983259350656681
1037,2.300606757242349,-402.1188186414656,39.67068218515488,-8.041925895122858
1038,2.654345457004638,-373.052355721884,71.98239279346308,-8.508874033129814
1039,13.717800548587547,-289.91448792326264,259.02922078903066,-4.416967463964738
1040,12.33390922419494,-313.93214641924715,251.2887785230123,1.1655858143158184
1041,10.202956894775523,-389.6640755182598,100.82628370827295,4.8507122686733055
1042,12.39200613655521,-323.9591835320461,193.61692997961651,0.801024987998062
1043,6.871504190861742,-257.4679493746371,369.3804782107472,-4.255283875924761
1044,0.7202710322007988,-347.33066189143574,265.2048761362093,2.4422060479482752
1045,5.079223519088373,-389.6482293785666,148.51805659616366,5.089510160444661
1046,13.744483122692143,-353.5513760318863,233.3275403578882,0.4867894201888703
1047,13.751306366291828,-337.01012730260845,326.7018714232254,3.027631633162855
1048,11.151702821611252,-347.8673095762497,323.57678425090853,0.9169658082682872
1049,12.128784115765484,-421.1585425552912,214.73852197924865,-2.464284046853209
1050,20.441848864425083,-379.3620151263895,267.58075977815315,9.9778091418475
1051,33.410410018190305,-271.88728241366334,484.8824933262658,29.19286942646977
1052,32.78485987373551,-368.1492179251509,372.9613614123664,35.056335645454055
1053,25.590543129982507,-441.52246893779375,177.84276611241512,22.18342629417657
1054,15.81639847961651,-328.39994447119534,386.3767226772616,4.733151178557819
1056,8.472005973755586,-420.8821920545306,347.86810232751304,3.1375305196615955
1057,13.936432580990186,-389.5845617731102,378.2586105577648,8.303360579480795
1059,28.819744581589475,-464.184592085192,410.21121595602017,21.505066118612376
1060,24.631594812404277,-506.70377013855614,344.2146617061808,24.60149790574178
1061,29.669194132201483,-490.37213231727947,394.0410911877989,23.436034633001327
1062,44.76848761284919,-471.1850614317227,470.7772696934408,35.51239898980202
1064,49.33900384192748,-539.0771112287184,401.0839808001765,42.783491565812255
1065,56.684606658453504,-547.2560470943572,341.1141536526848,47.70492190668665
1068,61.998164109568734,-550.360334312194,363.6991597181768,55.565512156865225
1069,62.63878936524793,-460.1496267324546,443.2299954431946,51.47897595710037
1071,66.97677213283714,-459.7871520705521,410.46582081215456,47.53945057607325
1072,70.82377540577727,-419.8513078314718,412.9615708279307,48.31958788458178
1074,71.79419646304268,-362.0544629599899,437.3160167328897,44.39246113948093
1075,72.56528627262196,-350.86263574962504,394.1022814307362,53.22445741582624
1076,74.90919267555455,-354.3155805768911,315.1324699666584,62.61922744362619
1077,70.74464214031013,-224.01078590378165,469.7572345532826,61.90355919077501
1084,71.04182404854873,-36.73902821587399,373.7715872557601,67.18441490104306
1085,65.48175923748204,-29.926475424552336,344.1593261351518,56.25128613201741
1086,59.759509787149,-6.503391430247575,302.2059480558092,45.60412249637193
1087,56.06897236543955,30.76711217919365,293.1804205336957,49.48250940179605
1088,67.48783518277196,113.12674694834276,318.0736574677867,53.90457296711065
1089,65.43754255018212,169.46013667876832,386.9877563920454,49.77499418654952
1090,47.45319495493459,97.92277203430422,293.5095625263348,45.68628976782384
1091,48.92025598223336,74.51635106373578,157.86696861026576,44.39181712553909
1092,48.23884059402917,189.9567180762533,282.0740664082987,42.76341588508512
1093,35.051860246308934,233.60887797386383,333.9699508763442,30.422827257851168
1094,28.798493476635485,187.91909149405544,171.54593333718367,21.60052311040636
1095,27.89928985280858,222.65136261750013,148.04318325177883,24.583274789347342
1096,26.22053688397864,299.25946165714413,232.00084408961996,19.78750614932869
1097,21.24007518113649,287.9631465282291,192.91150567206205,7.684842931259482
1098,19.608709059582907,246.5698335641064,48.1521935070341,1.6764341802154377
1099,18.90732188602124,293.3767211805098,24.11566984197998,5.187407431876636
1100,12.015569248098473,415.48113584565,209.0802477539255,6.728191144204175
1101,7.874564810445008,459.96349294809625,275.5645422722082,1.820070362813567
1102,9.866633635123437,390.4490899355151,90.55410180451145,2.186455331473553
1103,6.825291639310308,424.8340392243117,53.94836698450672,3.493291790917283
1104,-5.099410516406351,490.3937649033032,137.69120036552704,-3.104520330314699
1105,-11.97264348216413,451.4200111813843,81.41556202353604,-9.735766295001667
1106,-13.90432017708372,458.7494076061994,32.75655827331866,-7.768753619122435
1107,-16.976239274954423,505.7822405723855,50.83323715606457,-5.585074842034373
1108,-9.914029119347106,520.2054191092029,103.1644990026398,-9.501114094993682
1109,-6.694962881796528,453.4629451450892,26.828105388151016,-10.165510196275136
1110,-20.684274708706653,412.8834910523146,-103.0192999469582,-13.469308558531338
1111,-26.729574732962647,521.9647936942056,28.538180646282854,-23.607855234775343
1112,-21.863931765401503,557.38351525506,160.31914986703487,-26.201088322450232
1113,-28.52016445757181,451.1011716951616,45.45764609682374,-25.24819083048351
1114,-44.15662797646655,399.8978333864361,-73.97415575874038,-27.758843246912875
1115,-47.433330207451945,436.6575103364885,-8.386209909338504,-27.586397588391264
1116,-39.56201832460647,445.5952820675448,49.89969501437736,-28.34955887243268
1117,-35.59687145028147,387.6692748819478,-57.497421547654085,-33.016583533681114
1118,-36.4460493579536,343.3626291351393,-141.80136804733775,-36.11748947450542
1119,-45.80521617054183,379.2290338627063,-77.25901780676213,-39.07185837482393
1120,-53.072817870619474,403.885204102844,19.716041058913103,-46.81133022646827
1121,-45.85940590426617,286.01173081295565,-110.9676552664896,-52.376217647630256
1122,-33.44165210161009,211.71593274688348,-299.9200778014201,-46.97177671085228
1123,-24.34559570773854,377.9393148268573,-65.1935576152755,-41.227117737347726
1124,-28.78679452603683,438.7561743813567,169.5721439588815,-46.01192868420912
1125,-41.91654062275484,253.8462783433497,-78.86970682919491,-49.94385968679853
1126,-45.266707473871065,254.96619714144617,-173.8189628830878,-44.35376070431085
1127,-34.883338806946995,334.2536507737823,2.323610127205029,-37.11229618976358
1128,-29.92927502311068,227.02598098944875,-82.49251357797766,-35.69483450237021
1129,-39.04781575349625,202.72146030096337,-175.37028267903952,-41.04851271613734
1130,-45.65933021296223,261.5233595492318,-91.96497240453029,-42.737484682074864
1131,-38.83031462976942,246.71784147806463,-52.57911717024399,-32.48289250349626
1132,-23.55807666837063,189.35954257193956,-103.81342518544989,-24.20397699250316
1133,-22.118145580607237,142.7764272587374,-209.27785247034623,-22.784598528582137
1134,-24.17408130966942,190.05175434518603,-191.60116363555423,-22.585347106753037
1135,-18.193448556950894,261.13083176640794,-45.26467633649008,-26.924888182475115
1136,-20.671341285778908,214.26455835811797,-44.37138629803667,-24.21269309335912
1137,-15.683687147247838,120.57720419485122,-222.9883994547417,-15.95603620618931
1138,-11.119967432881822,191.40591319277885,-209.82136658893432,-11.648783619646563
1139,-17.808169150725007,297.73142007691786,5.938294822175521,-5.720417220523814
1140,-8.481422599536018,196.0214242786169,-74.98513384180842,-7.232125607770286
1141,6.1120505462167785,138.55136767076328,-258.3551936617587,-5.837830957520055
1142,3.770233174873283,230.34664551680908,-140.5224249396706,0.6735974801413249
1143,0.5575051408377476,239.29501843685284,-60.76820409175707,-3.423404015280539
1144,3.5940794960188214,192.4176074224524,-164.64929640543414,1.3445158315589651
1145,-1.560999454552075,175.9245019769296,-231.26076722180005,14.677806223073276
1146,2.3265027441375423,213.11379112722352,-180.3136755154701,20.675438434438547
1147,12.105661818175577,259.9696596665308,-93.17819846072234,19.13118630561803
1148,2.687642566335853,212.6271878676489,-173.7957738933619,16.39486495696474
1149,4.218094468640629,189.520902692806,-274.0271972781047,22.259031251305714
1150,18.63975245048641,323.1321856197901,-71.86978214257397,21.38525040289096
1151,19.84789060484036,372.8361149956472,71.35891105991323,10.116808126535034
1152,13.646922987245487,243.3836637539789,-139.0256333934376,7.09933012269903
1153,4.818964032019721,273.959800589364,-154.85945104050916,7.637494079244789
1154,5.795733246952295,345.65727458847687,-11.293077512760648,7.869569333459367
1155,14.466426209983185,259.8572610463016,-134.53474476770498,16.695231778678135
1156,15.073826984269544,267.5041448432021,-199.2309417631477,20.57118596497457
1157,12.842731200857088,304.4188699661754,-152.81044895842206,14.070658821321558
1158,16.189276274759322,311.7393000484444,-139.05706479540095,15.276662144533477
1159,20.249304843397116,345.75725071597844,-89.88880047877319,14.526158477354327
1160,14.604840065789176,309.8053443650715,-150.9616545662284,12.118476976102102
1161,17.31440282749827,357.1145547949709,-173.90683668502606,24.023819026740966
1162,29.612699302640976,467.71110236505046,-22.127678363816813,28.519335095435963
1163,20.80683958268492,390.8399460711517,-60.83179612748791,19.876187755464343
1164,13.266453007934617,299.2711610174738,-238.1816203125054,15.071782820130466
1165,22.591739353811136,391.4549872810021,-141.59589434671216,11.216090066169272
1166,22.43178829635144,454.5110976337455,-17.041736413375475,6.392186520213727
1167,12.955857519846177,386.843930084724,-146.8567175513599,7.770425935988896
1168,3.922796530940104,380.072164428886,-203.44932830601465,14.84830953051278
1169,8.420227227412397,416.22741668950766,-146.01915074151475,12.722825859804288
1170,14.750849605508847,406.07923972280696,-153.64574415318202,1.9966412311041493
1171,-1.3523407564498484,398.96787058608606,-161.0682187945349,-3.706861387618119
1172,-10.52481069249916,351.6862667137757,-243.60586860531475,-1.910483662271872
1173,-6.107849750085734,415.9462526664138,-175.50172853807453,1.4245913541526534
1174,-8.597265538264764,508.604671953246,20.905063757672902,-5.649979656809592
1175,-8.521435605245642,373.2789979698136,-173.5891017463291,-9.383436812931905
1176,-14.521691525471397,373.4821633081883,-278.47861639072653,-6.577240276164957
1177,-20.446289177023573,492.8168357047253,-58.607563386671245,-10.57530890146154
1178,-8.181689014745643,413.8865632554516,-107.56207670795266,-8.310134730287245
1179,-11.053362073143944,371.91002359613776,-232.11167208408008,-10.53027136468154
1180,-24.97551709797699,445.7788511402905,-154.14536119776312,-14.945822779467562
1181,-11.511570459668292,468.4419999145903,-83.87726351805031,-10.9637705488567
1182,-5.680312438169494,418.6354316109792,-127.34472848195584,-20.887230091000674
1183,-20.19609563195263,408.37614038260654,-174.82512552803382,-22.86147970438469
1184,-18.529686490714084,482.3338383352384,-102.58189664280508,-12.59214402694488
1185,-16.25702516286401,522.6957590607926,12.592065632925369,-18.73128275512136
1186,-24.52443754900014,448.33462406368926,-40.92907318309881,-20.757423869683407
1187,-26.72491715557408,379.4688008795493,-201.5328148440458,-19.52090915699955
1188,-20.811663265980314,445.5097350324504,-124.07421116461046,-23.75698547164211
1189,-9.965120782522716,481.3160314145498,-9.46371673757676,-19.08395888734958
1190,-6.681972559628775,399.39188266918063,-158.3683404797921,-22.544154475501276
1191,-16.7624821611098,375.402704551816,-229.23042155592705,-29.373534425743856
1192,-25.267829164891737,457.7988409535028,-68.99454410455655,-27.381671570939943
1193,-20.89742903324077,476.1431822208688,-2.2952422770904377,-32.30164989907644
1194,-15.014488697983325,378.8932943656109,-154.61464571289252,-35.597724074847065
1195,-26.627455736423144,372.5505807721056,-201.1191759617068,-30.254361387720564
1196,-35.97914518768084,479.8493041270413,12.21786210569553,-27.338177178055048
1197,-29.10709083400434,485.8080154373311,104.42426167055964,-32.610961512924405
1198,-41.86204102335614,392.96363722812384,-67.60077601578087,-35.57072814859566
1199,-55.586389569507446,416.8683686298318,-86.5452257571742,-27.827970486716367
1200,-44.8177484573971,479.8909683539532,48.38615662918892,-27.129472459550016
1201,-49.78541228140239,408.1593104065396,-3.3522046139696613,-36.56971897109179
1202,-58.20125211344566,379.3164519532584,-64.59753244626336,-39.27108759226394
1203,-50.3541280736099,439.1309276064858,6.882458317093551,-34.82369805886992
1204,-55.3853886150464,436.614713632036,36.39721905812621,-32.59088835862349
1205,-59.0973644281039,385.0606350968592,-19.7641209885478,-33.53165169595741
1206,-42.96476767200511,385.404364106711,-1.915637522470206,-30.236315531365108
1207,-39.37683945300523,452.6654013576917,152.13104140467476,-24.306036606023557
1208,-48.68249892335734,465.9439467275515,223.55368039070163,-28.621507184318038
1209,-38.77977622213075,399.0693594757468,159.4374274367001,-36.26786514397827
1210,-33.103873296495294,334.5558744566515,55.99498970049899,-33.36400307074655
1211,-49.18059331085533,376.1583617073484,65.22200243535917,-30.555182488111317
1212,-50.57323008682579,500.4966030926444,309.5769251844613,-37.59716120775556
1213,-40.30243460382917,446.9901438453235,328.93155764532275,-44.39393780357205
1214,-45.0600225791859,345.6517772641964,110.52327548211906,-39.59019245102536
1215,-47.69896015807171,433.24257391225547,226.285903775366,-34.14410647738259
1216,-44.67753516120138,434.91347981151193,312.4542602824513,-34.016442749794805
1217,-52.09307864334551,315.568507490214,98.66622850927524,-36.07941808825126
1218,-58.24334404399269,281.7332226061262,8.918719096342102,-46.30986852187198
1219,-58.441137815709226,365.0800914792344,159.7928217840381,-49.484671213664114
1220,-50.87709896956221,444.1159544945695,313.5806996768806,-47.13594407393248
1221,-39.78719873080263,343.1390165570192,144.2947779649403,-49.84037657620502
1222,-49.52165922010317,291.675384552218,-32.322705880971625,-42.8595116311335
1223,-54.40926441553165,401.5369294779375,151.90117084560916,-38.730173830961576
1224,-43.63546782784397,355.29627733305097,198.13863543444316,-46.98819124352303
1225,-50.52946237204014,247.99057758506387,13.038210417842492,-45.54416005508392
1226,-45.192150608083466,311.76996262092143,40.69364405306988,-32.327347873331746
1227,-34.48893107561162,354.6458728746511,116.82583155320026,-33.659239693457494
1228,-50.43263563152868,298.63843326922506,34.50701354420744,-46.70486619809526
1229,-51.56936180969933,262.8291858448647,-55.870401424355805,-45.64804418093991
1230,-46.00735254891333,290.4160067741759,-68.46246926230378,-43.31686869764235
1231,-47.54844479690655,371.8269960721954,42.403117385692894,-43.48052706746967
1232,-37.843416071060346,348.9446105109528,21.02239945228212,-33.087937737902394
1233,-42.29768751424854,265.85099046630785,-184.25806646840647,-29.49995136423968
1234,-48.0258772764646,347.45651375548914,-128.57429604721256,-33.66904275515117
1235,-39.98035108027398,431.97221025731415,50.28979961457662,-32.336231953144306
1236,-47.70010613347404,343.187799573876,-73.51685034739785,-27.928586508351145
1237,-49.16206084415899,271.43110761931166,-277.5621512704529,-23.362857694999548
1238,-36.56471186236013,349.9391896817833,-196.89343996346,-25.25277183370781
1239,-33.3729326876055,412.548982265871,-60.678518692962825,-28.410390538396317
1240,-22.436171346111223,332.71382524445653,-210.47942168917507,-27.04905040966696
1241,-12.185440359899076,283.4556786878966,-374.3311942650471,-26.592241250909865
1242,-11.009346211852971,366.3263105596416,-272.17081858892925,-17.24515968869673
1243,-9.91500450822059,410.80496017541736,-153.60201300284825,-9.35733060631901
1244,-18.32096486541559,319.65285318531096,-283.1767943382729,-22.979938410542676
1245,-20.78483330545714,251.10970562743023,-457.94772994262166,-34.33298953861231
1246,-13.040681292390218,353.61521376948804,-298.3826460954733,-26.243692667223517
1247,-13.938654878380476,386.415808536578,-160.66465442371555,-18.94181870407192
1248,-18.20605157112004,263.71993509540334,-375.49373388732783,-18.748739950970048
1249,-13.021370179543736,312.08091319771484,-352.7690282142721,-12.830054661695613
1250,-6.314982976356987,372.9979394939728,-178.52914101304486,-9.378577307594242
1251,-8.868499220814556,267.00711977062747,-303.67528466670774,-16.64748409355525
1252,-8.270275645772927,242.74227851862088,-364.4989150750917,-16.04807427432388
1253,-0.2929888709913939,257.4914807090536,-311.5349242663942,-5.624417726154206
1254,0.119721704366384,265.72783807618544,-272.6293460414745,-0.9087967325467616
1255,-8.031232970039127,272.7354389890097,-219.87120220111683,-0.6503080000693444
1256,-12.9315670960641,190.3376369182952,-333.44240914005786,2.978940209985012
1257,-9.210935486771632,217.98060816060752,-351.5372793348506,11.040617052305606
1258,-7.440741807426093,315.5073469183408,-125.58435382554308,9.718239413647098
1259,-10.6693001925305,214.5094408732839,-171.2491744251456,2.2603436444915133
1260,-7.178897098317975,139.32768522528931,-350.9558992194943,5.145398112814291
1261,-4.263194228726206,209.31517394073308,-233.61777230119333,3.9968191662919703
1262,-3.4943848177208565,195.3419393775985,-183.5350294120144,3.686423582126736
1263,7.057257817767095,135.37767464574426,-315.35689780232497,13.494261371946775
1264,13.564689195365643,122.08411269262432,-327.96445328556,16.700291576315067
1265,6.11037760329782,150.6621034918353,-235.3745367222,22.14577406497847
1266,1.7811743405763991,196.10541856428608,-152.5859490421135,22.942972318443932
1267,6.792208301194478,151.97074953000993,-201.01477928622623,12.167221269701258
1268,2.966445526428288,73.81968394201249,-327.98626451939344,14.573132977136993
1269,-4.653568152047228,141.86762441601604,-205.43180795991796,16.18211467193032
1270,4.636377918533981,202.3101087496616,-32.568667909596115,8.27455421545892
1271,10.263199120759964,106.59583510784432,-191.99179577594623,7.483837460647919
1272,1.3633090172079392,125.43644983600824,-232.09146964666436,6.708251337680849
1273,3.769335957244039,182.50394563796,-88.90593622415327,11.210538677027216
1274,15.749637019791408,96.5087828328833,-170.54392357426696,19.883883174770745
1275,15.436227874044562,87.59017016203143,-235.74585963902064,19.13629935310746
1276,7.789239723671926,117.0462491782382,-198.16339469561356,21.847088045920827
1277,6.482971429766621,98.93334754323588,-198.3272151707206,21.139685521207863
1278,4.074321359570604,105.9256252797786,-202.4971652335953,10.257785563750076
1279,-5.645988364733057,82.3642167900689,-257.1037227571942,10.21902949946525
1280,-9.053665478306357,77.18476845230907,-285.72322132997215,12.652587653705268
1281,3.8065358747553546,185.86018078424968,-85.68518883106299,4.707114803415607
1282,8.402094966091681,175.96751115727238,-7.094010856701061,-1.700593854431645
1283,-12.682338798535056,17.58320231921971,-287.5512533064466,-2.085592309187632
1284,-23.087429140578024,84.0894151860848,-241.89913740823977,-4.2744285937951645
1285,-10.096549875452183,172.79592931084335,-50.39272858784534,-5.997197022676119
1286,-12.155100735340966,60.98364726314321,-256.91589391976595,-5.018936434484203
1287,-27.932848867960278,68.51934462576173,-304.8458513703663,-14.711340016583565
1288,-31.58249333128333,130.554023017874,-176.1255072366912,-24.38024988579855
1289,-35.497548659855966,89.83632573485374,-231.1557960640639,-26.357977078630935
1290,-40.21988066151971,58.36086319829337,-328.3797618681565,-34.651707022232586
1291,-34.92041015205905,57.10997255332768,-367.44635173515417,-31.551582393454737
1292,-38.53225015249336,153.43961741938256,-193.18872565007769,-24.503937677422076
1293,-38.72635183396051,235.86466060276143,1.5954462124500424,-34.15979932926712
1294,-19.088016575027723,131.049216641346,-168.5641360313166,-31.87733445155027
1295,-18.545454010250975,128.85121307335794,-265.396548635792,-24.25887871843588
1296,-34.75938582920935,233.2679725077469,-57.00779508636333,-28.489204444209463
1297,-29.864162487792782,157.33875514171086,-70.55505037563853,-26.515368598848
1298,-15.401517591817536,120.7680348448921,-193.9869252650533,-25.80831385659985
1299,-6.934384436055552,199.58427730714905,-84.7409205310978,-30.709273422631668
1300,3.818347996333614,192.92455203318968,-15.121181890834125,-28.41192538019095
1301,16.604375829803757,143.15367636294104,-98.4852514709346,-23.13692842956516
1302,13.300633959064726,136.87611578055655,-146.37186772958376,-22.79237584699877
1303,-1.1059122704609765,204.90590964490548,-70.51258039218374,-19.051460307033267
1304,-0.7440887581906281,263.39014169131406,94.478310380131,-12.4060497955943
1305,4.144602912449045,193.05070199165493,67.2527885385789,-10.13425200646452
1306,-3.2557081139239017,134.92498195101507,-119.57630644226448,0.1033810789667768
1307,-15.209113569726467,210.12462409748696,-30.550189512083307,5.119861755563761
1308,-20.97255101663177,250.8483233076986,97.2796759030316,-5.969179691412137
1309,-23.691015007090755,188.73029892961492,-43.25615224405192,-12.14934718386212
1310,-32.215231639216654,159.5881820198847,-132.66708834073506,-11.597019581327912
1311,-32.442747510474874,213.25511594722047,-41.33617620798759,-7.494686094185454
1312,-27.348538828926397,235.9394488852704,21.310316079529,-10.26940528859268
1313,-30.23926608733018,146.24476411682554,-128.0544413595926,-24.24509596712596
1314,-27.760096574696945,110.06215534114745,-254.66896483371968,-28.18015462848416
1315,-31.57282594766002,225.3157542567933,-48.832063525449485,-22.957480890720035
1316,-37.33098751257057,247.88378465664573,91.80947110010312,-18.01948259040364
1317,-25.37235525768483,136.7767505000811,-108.97131377039476,-14.356872655102052
1318,-23.792454184120288,163.05828352528624,-164.28896876657382,-14.19666427921038
1319,-32.68953263104777,221.87340227724053,-22.22489502141252,-14.421148308945703
1320,-32.547394062858075,129.494377602241,-103.63750131311826,-16.84270590635424
1321,-36.15159335586941,111.09999116766268,-212.84359099110588,-17.512390426840284
1322,-38.03868192675873,207.77947752235923,-95.57962530152872,-14.24837674236187
1323,-27.43877699182485,217.1034291625256,5.924055089126341,-16.062353315835935
1324,-20.51511222173576,143.42431298084557,-89.30359534558374,-19.46259880848811
1325,-19.43627300224034,95.46243745007088,-249.35286673577505,-11.206324534621672
1326,-17.890301947976695,128.677256489289,-228.3395605982514,-4.402231079155172
1327,-32.20896419516066,197.00183242408093,-75.74951720761601,-23.34349574161024
1328,-48.33128256033524,171.06121702713426,-112.89304149046076,-39.791685815936944
1329,-37.819505342427874,109.96221388148842,-294.57475171715487,-32.59829797706334
1330,-25.702264598076,189.1754252059618,-230.4522950581741,-26.372212615955505
1331,-30.516161320585525,257.4165775583824,-66.29789061669726,-29.463659816115975
1332,-34.83746255344886,171.47493051877245,-201.67746744444597,-42.25000147774699
1333,-35.88401197110943,139.0174640524201,-339.7580929886317,-51.98919628490694
1334,-38.90965354796208,190.52034863163132,-252.68766045290977,-48.75038307363866
1335,-38.781643247944885,188.12053446855865,-246.8823119685985,-48.85945125851868
1336,-39.82506315171486,165.3471242057276,-327.73484696424566,-49.44637862279342
1337,-43.39339215721702,152.3728502275044,-344.0993324739393,-43.32814586871245
1338,-37.93564532799064,185.4403789867647,-276.2467424266506,-39.59175347215205
1339,-39.22828009420482,244.9532985383485,-132.63708836154547,-38.15893331485131
1340,-47.43939864757704,168.7286943088984,-212.89584989205468,-34.45676909653412
1341,-43.90943198396417,83.94684767437138,-443.4803794615436,-32.34974226628765
1342,-45.69183773943223,197.37252703712147,-265.426560603315,-31.10862149027525
1343,-39.51106040882587,242.0368918631866,-56.4730713745812,-21.392325991113463
1344,-13.528619266537136,138.50396204934805,-256.0528138313676,-2.381413038201572
1345,-13.332098369850428,176.13623993573128,-270.63447927008383,-0.2042831925537029
1346,-42.95638447075908,213.8433099444956,-135.60177642921917,-33.39821997629406
1347,-58.64249569240201,124.52472237346228,-255.57680840883404,-52.92410435311467
1348,-58.97122523721191,96.72110951767536,-338.82769053429365,-39.61415329381089
1349,-58.56878509587841,107.84819337690716,-305.11363606515806,-34.80059931185133
1350,-48.85737910063472,126.93652334425131,-256.38236308365595,-27.31497456922989
1351,-37.37150824842684,135.8270151571487,-204.5693140537478,-25.1733482253112
1352,-30.738411200611157,75.27324152941583,-267.7217287860112,-40.95468921767042
1353,-31.53947137015348,79.7483848927659,-295.5990870184032,-35.15952777589882
1354,-35.04447080814862,178.61817549262196,-58.04642164194957,-24.27313107662394
1355,-22.012938125961227,147.80130343418568,6.212841944536194,-24.628385979147424
1356,-17.565906685849768,45.18813393602613,-260.2584703802131,-23.66361735834016
1357,-31.55316003902408,102.60496333637276,-199.83649125113152,-28.73889197272001
1358,-33.01297516417981,129.97789016144816,-60.4839395332383,-26.5820828638889
1359,-27.788165739511896,35.79276742879301,-236.93878711003345,-19.124278492257872
1360,-20.5417702947816,10.77373178245034,-290.6974596554646,-17.859837890231574
1361,-7.185198387021956,38.98941878287587,-199.6403988606762,-13.332312984239252
1362,1.4427774904324906,64.03977017407306,-121.6705648713978,-10.271407808297226
1363,6.430138238087238,22.1463313405402,-155.73693096498027,-5.469902111166448
1364,2.982977970597858,-56.157449219957925,-307.6776925018057,9.032098089010104
1365,0.5654254888868309,42.85633758048061,-140.7791686814744,16.93618391790369
1366,12.407551381016674,113.0573899691226,139.95797092100838,12.005891647411772
1367,12.960244587731722,-56.274214525241405,-69.79683752293931,9.156446135129954
1368,8.863480626649107,-71.62567844777368,-202.5904915704741,13.79586461087456
1369,19.124133592296857,2.68738660402596,1.7334381827968173,16.532648920816428
1370,23.71624014635745,-105.90675513120368,-83.42152986460133,10.72302610334009
1371,22.141088792202936,-134.41945710917935,-190.11622664699095,6.194170775823295
1372,24.695753051462816,-103.19981481297872,-87.24108127987711,14.870694588447805
1373,25.205574180607076,-141.85932924528606,-82.65380789863411,21.01265155249712
1374,18.540644879976757,-177.71426244522445,-140.70105537667405,14.9543383038108
1375,18.681455541773172,-182.36818291200325,-153.50688774418086,22.346491966425678
1376,26.574792194571277,-127.73536517447792,-64.39855723129585,33.531576921428496
1377,22.51033356235348,-116.09120643953791,50.275926570466254,23.52140398777556
1378,19.87707894473624,-214.77251669834368,-42.89334251196124,22.25212235120125
1379,23.270108061216888,-254.8916415325366,-191.64587980729996,30.55734123667935
1380,21.226094014180944,-164.39558281865902,-39.04387325479183,27.24344782642584
1381,19.31846195025082,-144.1962600410916,81.14053653174778,28.94888238920248
1382,16.638598468514374,-220.36318052234128,-87.2530315660988,29.98055656948418
1383,19.84129249258513,-212.0617117169313,-127.67341511810082,30.338378346379614
1384,27.0022871982801,-169.27294129459187,-27.13003188674338,34.10824706207495
1385,21.828470686479704,-197.6660851163324,-39.33819472484174,26.052114628153504
1386,9.5770629472554,-237.50665146159008,-144.13708009474794,24.563641668471973
1387,7.340563166661013,-240.34525308408772,-205.07157963185452,32.803364402177976
1388,14.187047690760664,-158.23946029832587,-27.405345479186508,30.73443857714301
1389,14.393893691893028,-99.5528538899962,133.93203217562404,23.72902468471148
1390,7.26842688961915,-189.3771872106008,-31.853185755957384,19.47310969678801
1391,5.463504611969256,-194.58793587773107,-96.04062080089352,21.58782561760745
1392,12.390521395507676,-154.27944344840944,-14.933563966442309,22.190789855303592
1393,17.001223484836373,-222.77871439093724,-78.44803527420663,9.97908710197953
1394,14.596188261137286,-227.34140818426383,-85.00474476387899,3.341549222051981
1395,10.19442341033573,-206.871719234623,-62.67996326443608,7.380894683665247
1396,9.515368004089396,-210.0703698191792,-19.884488170209806,3.512662942375755
1397,8.663342420055415,-268.164850498084,-36.32369073294103,-2.699262241658289
1398,0.4129886760201771,-349.4541754159145,-210.6086429694551,-2.923709187205532
1399,-1.3806090106299962,-271.0813115970232,-105.0691608636116,-3.439841661558603
1400,-5.999095104147273,-238.102432097774,124.39210161348456,-12.45301778879366
1401,-15.930156645285024,-381.7876294013113,8.68125726893777,-19.19723438244546
1402,-11.0100486495503,-465.5171567574144,-153.4891278805735,-15.008919746149331
1403,-12.289540417448734,-439.15157942660153,-57.30853771808325,-19.04111120275047
1404,-14.439603712409737,-451.9833706659265,22.761648127197983,-24.14219214786135
1405,-14.418403805182606,-534.0153320948593,-96.5641637815861,-18.32544653139485
1406,-31.753506009721605,-581.7041048621759,-176.27683719151537,-18.899631019026856
1407,-34.73466106913111,-570.8908143201843,-106.84436613979052,-30.887260733405128
1408,-26.264339120083605,-571.8958780355752,-18.21805807715282,-40.07988535996992
1409,-27.7788751359476,-672.8123250016943,-140.92925905290758,-36.09196562181751
1410,-27.442380316730123,-760.0139991524629,-350.10974732914474,-29.97023361342144
1411,-28.70785033631546,-627.2039376087487,-120.28705967607677,-32.2301183660893
1412,-30.865035290888045,-575.8859512181953,149.51426324638305,-39.51344796156627
1413,-35.72848446565331,-778.4231485100463,-136.3554086003569,-44.90831558511127
1414,-43.537092877944815,-795.7433589356951,-290.78992136969464,-45.58623674925184
1415,-46.31989946129033,-692.6788119249977,-52.85366398259066,-45.54403968385304
1416,-42.46002817009867,-772.4306910969317,-61.255031096341554,-37.62260352811427
1417,-31.917519531358263,-810.7618724722415,-192.815629332792,-25.548804295132868
1418,-33.48726887132216,-743.3357923259027,-99.14439295098418,-24.44701310354867
1419,-38.04489062086213,-737.796809301246,-21.97190752212191,-23.28797391455737
1420,-28.01217742024164,-784.9799909293652,-97.64598137687426,-12.447020063118543
1421,-28.75914796207508,-810.5078103798442,-165.12808017851785,-7.897831405047327
1422,-31.365423804920283,-780.7878485363908,-126.85845936788246,-14.697938776138471
1423,-22.90201541192073,-728.5887763923965,-2.5954528216971084,-17.535791313566733
1424,-27.76255461211258,-735.3656475273892,50.84550107177347,-22.09787690002122
1425,-39.02142603845277,-805.1915221032687,-85.55207540828269,-32.93258274096297
1426,-40.55472053917765,-759.8740409389138,-82.83508377207909,-28.72602634353097
1427,-36.85517797961074,-613.4232174446806,248.1291558168596,-16.297983292664867
1428,-33.05298799384036,-677.456804715097,272.92289258062374,-16.51646125255502
1429,-27.85552116196777,-800.8156209476292,-18.51291997684166,-20.62344525053049
1430,-18.60315388033632,-679.618746812921,129.02470652887132,-19.610342756321188
1431,-14.916043484932745,-582.4265884179622,370.03729244554415,-15.974205503764097
1432,-15.365203228779135,-643.6525308075361,251.9726064131828,-10.431269099062774
1433,-15.756503420649096,-652.9179415255785,177.56615635787605,-9.237656017910922
1434,-19.748080756515265,-576.4763644970953,294.6577474726364,-15.693023271101993
1435,-11.701677626551827,-522.5222420818172,429.8349943332141,-19.62309235832072
1436,0.1285096768406219,-545.8768936656415,394.8475655385992,-16.0658509429486
1437,-1.517241407331312,-517.9787582578138,358.4872841613833,-11.446094768703915
1440,-23.5670699980692,-522.0500112641603,411.1564089889871,-5.512439236219507
1441,-12.445434875873616,-500.2260655397549,380.4620776287047,-1.423802415432874
1479,43.12222164327977,-454.1512822457589,483.8239803765901,32.38839593407465
1482,44.5519548287848,-507.6776476949453,451.19555692607537,42.56278115627356
1483,34.696651146397926,-518.5053004613146,378.5299516033847,45.35674367530737
1486,43.14835569279967,-504.3250600565225,484.15277031832375,56.15542689227732
1487,50.21085722238058,-494.6910804631189,396.3111793440767,68.35114791820524
1489,50.908396744402125,-515.9237967412919,437.5578377640341,54.04870473977644
1490,54.824371626542415,-538.858470629435,327.60178978473414,58.14686737855664
1491,49.55290136067197,-489.4515732419677,365.9302592526656,57.96050016273512
1492,37.75389724533306,-498.4413399919868,388.7566253991099,54.34640030586161
1493,36.3388905141619,-561.0472097983584,274.5496836734237,44.27419072180055
1494,34.057114075287245,-602.6372487884946,126.7784574276302,39.027752773836255
1495,31.577164266374893,-536.1308201509528,160.0124209036585,48.64238761970773
1496,33.69415927241789,-431.673274722416,354.33713293389883,46.120667595998384
1497,34.24951210443396,-454.0148755689152,342.8383503105724,33.419192009896506
1498,40.64642388053471,-537.6989417034201,112.3543135309592,34.02284593106015
1499,50.12173795007402,-464.4082720251754,169.87666387995705,43.12025492452085
1500,47.57048574980581,-393.6233327081427,264.4696577053983,48.86454585159663
1501,43.68065555812791,-455.6019890974276,77.41392055270262,46.0955263247597
1502,46.60005332127912,-445.4664631551132,17.32879000273533,40.69770542345941
1503,45.608780743787065,-365.971633466892,95.6551220382098,35.768276643007994
1504,35.99527323397342,-335.01919543463737,111.72063379792962,35.23069814068731
1505,26.320841497043148,-402.5620219223201,-49.920206498820335,43.336257318384014
1506,35.50173219968565,-444.29636173089966,-215.85117570334117,44.70146322360961
1507,44.98216091055656,-304.3857588022948,-29.996394959511235,41.21907384559745
1508,42.80176934262272,-226.82659752853212,105.28680100722704,42.14543675776804
1509,45.04374303028453,-330.1232488807291,-101.51879817293955,38.16542939428473
1510,35.065984337590635,-341.5617969632149,-207.7884656029055,37.51877890503965
1511,32.799465320655145,-230.296026926022,-70.97627348382957,40.86300369835226
1512,43.29014222201658,-212.2214813921601,-32.23939671635162,37.66831675928552
1513,29.76546118594706,-273.66217524325475,-202.45967946818564,38.6277486794861
1514,22.24965901952237,-217.8017174694687,-215.80719034408685,40.53065326856449
1515,26.944143840810284,-153.8598926863633,-90.81954661966302,37.337765936681535
1516,26.514703139371704,-219.3328414107673,-174.60940673423465,38.64090856839903
1517,35.78588850208325,-242.34302455186844,-301.06166496139485,40.2186015220941
1518,38.23957507754676,-192.9393310789019,-282.2638394791866,36.370331425918266
1519,42.87011307809735,-134.98513687122613,-173.89546450879425,42.92713844700484
1520,64.23116146371467,-140.23844763077796,-177.0715133085614,63.53260894329287
1521,63.85773854114814,-203.70993678830564,-347.97455617482774,61.76876648835605
1522,38.06666088855127,-134.13661498436704,-311.3743063271977,37.21387031511404
1523,19.84621680970304,-35.921772103756666,-118.42029191728216,25.927751157665625
1524,23.80762339639477,-97.35439750226216,-190.66580823645927,23.38829099945724
1525,40.95564716128865,-161.64865119708702,-371.8030886886991,26.65189583122265
1526,52.205235715722665,-72.46036319388077,-284.2533460867708,34.64142921962775
1527,53.43773267773213,15.364271072670816,-147.88272421632428,32.480061623908114
1528,41.580962157284375,-51.03033653227613,-286.12780425150413,32.90950228611473
1529,33.45710845157737,-73.17150942841545,-400.7656533275149,42.72252838022541
1553,60.98473838763312,300.7620489830151,-312.7356361176353,64.80255242378917
1554,59.93423382064793,340.91323651047423,-254.361129319208,60.83230058371555
1555,54.41610514180502,307.7607652707957,-311.929855525872,57.58259250759147
1556,39.99372765165754,235.4600762296468,-419.635566572455,52.42230156285223
1557,32.005517154582776,305.7311788941733,-311.6060397636902,36.75841012527235
1558,31.0068158856011,370.0263954964466,-161.26359438916552,26.69003704050556
1559,30.62597366666887,267.05817194329575,-341.93835085828323,30.888148213620298
1560,15.706318600976374,283.49948869179934,-402.17733417791896,26.57738416583743
1561,8.112058792554308,349.25105630466715,-257.8740198836604,15.58559186180355
1562,12.766506327548996,257.3515715994872,-348.2876267260581,20.540925406850874
1563,8.885161010315642,239.4912138003856,-419.37986915759393,26.602386126643975
1564,13.766908431076445,281.17634745081887,-354.4189292358642,19.28830637189094
1565,9.8412604429177,246.89295766921717,-379.9214538634988,9.736737093073316
1566,-5.482024823140819,218.83808547304943,-431.9123911275092,3.547900073812343
1567,4.000028731767088,208.8391825342551,-448.488299764038,9.331108258396853
1568,12.178295152552892,215.55403583636507,-457.598623089405,16.77310784056317
1569,7.85250307363458,294.071902370546,-298.47860269279045,5.933699434215669
1570,11.77340889768675,281.5339356483892,-224.7060811326373,-4.703439477249049
1572,4.314911464811303,214.2142656003125,-450.40642575324455,-2.4062303896644157
1573,3.858555176237133,285.908107815776,-268.9464229379228,-2.566274690325372
1574,18.678699623560533,195.56441728165373,-447.0111189092568,5.706017165386584
1576,13.15988156828098,254.78488675970584,-351.82236985772033,8.921920453954954
1577,-1.6265255245380104,222.98493441892788,-355.9153379491036,4.488399869645946
1578,9.496584822190924,157.60942276380956,-478.9577932082757,12.901434505591167
1580,4.939451777958311,211.6502502229996,-368.6560506942333,-3.31553472741507
1581,-11.198878314869944,273.0869068922475,-210.54628905917343,-6.548726272623753
1582,-7.294365848065354,176.24513354245573,-359.498083076498,-1.6885897340835072
1584,-4.812437550921459,212.7011529477313,-326.83101886391523,-13.499685714195948
1585,-12.812573906732723,161.3149740062654,-296.7738638458832,-11.685587494110225
1586,-4.3426450012484565,76.511644102633,-450.2091737832816,-7.997503513091942
1587,-7.403149575460702,127.46850345283748,-366.1049551520555,-7.574271382793086
1588,-19.365863877290398,104.85825759544969,-288.6467686099932,-9.184552098537097
1589,-14.595928954251576,1.049498479347676,-425.6828751009889,-14.694848826446105
1590,-15.329958604008423,-5.410415325313807,-443.6080767383392,-15.441557957616167
1591,-29.07094184862217,55.39145907666534,-281.3935898054333,-10.345831689453917
1592,-26.053208132914733,34.782874156255275,-234.16296644188697,-10.906028770812554
1593,-14.733361917664295,-53.128649605903774,-334.8604577491351,-14.499109502474312
1594,-14.086621338676196,-128.37340354174376,-453.4361006632971,-15.962628740497166
1595,-20.88654152408708,-113.23916259082034,-441.38845907131326,-19.587232367426623
1596,-26.67645182518754,-3.116491915192455,-160.64621163762058,-26.639304021169664
1597,-21.71825817512581,-67.57809155574068,-123.34538749445346,-30.06558334454894
1598,-24.53000819945009,-199.735293247737,-391.8271958891128,-33.18779866377008
1599,-42.36714578943793,-113.3982740980573,-261.0430941855302,-38.13187729855417
1600,-47.43665289343335,-100.42254482768476,-127.89137998170918,-34.48858888822724
1601,-42.90931205858942,-226.96880776854232,-343.59431508311536,-31.126938600093126
1602,-42.35117832478136,-242.5462635257281,-392.9465769839008,-30.736473547207424
1603,-40.069722896732856,-133.36988112702966,-173.28598871087888,-29.52853704846348
1604,-40.17509062617319,-78.81369477137923,-17.983456339803524,-33.05879359989194
1605,-41.70550549167092,-178.67110977414995,-197.506514601002,-28.5175595797773
1606,-38.750820096291136,-155.18911516061053,-242.48302802315447,-26.842535805277294
1607,-44.95350886232336,-58.6898757731542,-18.10083600663347,-40.96005073413835
1608,-52.75755941896932,-129.36185421515256,-92.72584431053838,-48.608321482664905
1609,-48.49724409819464,-148.76239311648533,-230.66526796668768,-52.91366951700184
1610,-51.00580776610877,-62.26657592970878,-126.60810338659212,-56.00847399482154
1611,-51.6274482102308,-15.484099353197962,19.334048474323936,-47.0126576947805
1612,-46.60889554547612,-57.56857144786045,0.8832444977597333,-41.70608177545364
1613,-58.618465466744965,-107.6741287736222,-153.93848004570464,-46.93680151479202
1614,-65.6898055243073,-39.179946361109614,-109.86747614765773,-52.13450006884523
1615,-54.52939239420812,47.83855059044436,76.40523643698543,-50.13974264872377
1616,-48.60499062543386,24.998849033378065,54.377120175166056,-49.657150824787095
1617,-50.74177010008134,-37.95824193162844,-90.3445858625346,-53.131062448606826
1618,-52.915406777872704,3.408194900956005,-30.490715302119497,-47.94720765133388
1619,-52.19947699422482,82.28001546021551,123.4701318842708,-49.34857795573771
1620,-47.20737014329643,36.50799265364185,37.37301631842274,-58.94234379919362
1621,-45.78443001236883,-14.758205589838326,-92.76769000588683,-57.261103058437584
1622,-49.28845756661031,68.10871901549399,40.957249549916014,-53.32870183227351
1623,-48.53988553714589,116.9852696931921,180.0233129930566,-56.48453190787404
1624,-55.19313715185854,28.064946591388438,53.58269262430258,-59.660354920401005
1625,-67.3808617212926,-8.781437763478607,-48.731997701572254,-57.49085918077617
1626,-61.04314409321523,73.90986965689808,90.09564709698316,-52.97190694141318
1627,-53.33351802433026,139.06089725485072,242.4276917567477,-48.35189562759479
1628,-54.854670890956186,72.65158228809014,145.4902273734333,-49.17717333853943
1629,-53.96808707731543,-13.462428710889071,-44.43880402215291,-52.95070316994679
1630,-56.68764005351113,97.22796565759928,140.28069353080355,-52.71733669890091
1631,-54.05828225411824,164.48286243062466,350.1333867748035,-57.15458258990839
1632,-49.35425926945754,52.47965501062572,145.301242459449,-56.6507365275902
1633,-48.226167547138175,89.1619669883512,131.1803554496728,-49.03042438557896
1634,-43.28074698182172,143.57242117123678,298.05079798738007,-49.10483356179611
1635,-51.15513292766991,50.316239948384464,191.3581148554804,-49.20686786502483
1636,-55.14963415259263,38.55742131453008,125.46113063930534,-47.903842612635344
1637,-44.82948944726377,66.07544731907547,185.0863346668193,-44.25069583841832
1638,-45.56844946288038,64.32791216019541,217.85184120794293,-39.8492040259589
1639,-41.69858597338316,67.6573512358591,236.44387614529117,-45.57943733400316
1640,-35.952899407508085,29.852246785070747,174.5903738538036,-45.89844057896698
1641,-41.63474810027401,41.45994477765635,156.33026898978278,-34.0834567908023
1642,-38.8891619357164,134.90705460403117,341.441753756837,-29.086475518983207
1643,-31.915733576403,105.68939707009122,376.8974831762025,-31.286977075462342
1644,-30.237727450352395,-14.673879926558584,132.19054650573526,-29.318954211092205
1645,-31.31827494536992,54.60678839869797,191.09060228685848,-26.318794526421694
1646,-30.634135243308265,145.03439311124384,380.9965427201241,-27.986310786523973
1647,-29.804412958677855,69.78934520622715,233.9159701296594,-32.70810885138053
1648,-32.45789669905207,62.10419974662364,150.18446975084953,-30.19247315922985
1649,-22.983753542474005,105.35559346759692,212.8717067386024,-17.95364110088849
1650,-8.105306133133126,120.88004901399836,240.9497064747848,-15.178650241869036
1651,-3.871365570405033,122.32883884524928,231.58100503438615,-17.950517608580412
1652,-4.5556883320678025,51.31123920576647,98.3885580901988,-12.688955240460928
1653,-10.50480277373572,150.67280059680343,218.08536144217945,-13.175116670216084
1654,-8.114211980922846,272.72556678392,489.9301257672487,-15.316121482333983
1655,0.6371502557594795,105.11790095362812,275.0744117554277,-10.425039624868075
1656,-4.849467944266507,100.3144606705755,140.51089430542197,-15.02953344648995
1657,-11.291246539942222,207.00280707608908,346.18412795488257,-24.2428016460035
