,TP9,AF7,AF8,TP10
0,-2.9296875,337.890625,-337.890625,-3.41796875
1,-8.7890625,377.9296875,-256.34765625,-4.39453125
2,-12.6953125,350.5859375,-278.3203125,-5.859375
3,-8.30078125,318.359375,-349.12109375,-9.765625
4,-13.18359375,312.98828125,-376.46484375,-8.7890625
5,-17.578125,335.9375,-325.1953125,-12.20703125
6,-8.7890625,392.578125,-239.74609375,-17.08984375
7,-10.7421875,310.546875,-318.84765625,-18.06640625
8,-12.20703125,255.37109375,-476.07421875,-15.13671875
9,-14.16015625,452.1484375,-193.359375,-14.16015625
10,-23.92578125,403.80859375,-141.11328125,-24.90234375
11,-29.78515625,312.5,-341.30859375,-33.203125
12,-27.34375,362.79296875,-308.10546875,-36.1328125
13,-38.0859375,383.30078125,-227.5390625,-23.92578125
14,-41.015625,342.28515625,-283.69140625,-16.6015625
15,-37.59765625,346.19140625,-326.66015625,-18.06640625
16,-39.0625,368.1640625,-290.52734375,-12.6953125
17,-39.0625,322.265625,-328.125,-16.11328125
18,-48.828125,343.75,-292.96875,-28.3203125
19,-43.9453125,276.3671875,-412.109375,-31.25
20,-31.73828125,349.12109375,-322.265625,-19.53125
21,-29.78515625,389.6484375,-167.96875,-13.671875
22,-28.3203125,282.71484375,-337.40234375,-13.18359375
23,-23.4375,367.1875,-278.3203125,-6.8359375
24,-24.4140625,403.80859375,-197.75390625,-13.18359375
25,-25.390625,328.61328125,-268.06640625,-19.53125
26,-15.625,258.7890625,-379.39453125,-21.97265625
27,-11.23046875,284.66796875,-344.23828125,-25.390625
28,-22.4609375,296.875,-292.96875,-16.6015625
29,-15.625,266.11328125,-344.23828125,-18.06640625
30,7.8125,250.9765625,-351.07421875,3.41796875
31,0.48828125,287.59765625,-304.6875,11.23046875
32,-29.296875,395.01953125,-124.51171875,-11.23046875
33,-8.7890625,327.1484375,-169.43359375,-0.9765625
34,16.6015625,272.94921875,-317.3828125,15.13671875
35,19.53125,305.17578125,-273.4375,20.99609375
36,33.203125,329.1015625,-214.35546875,24.90234375
37,39.0625,330.078125,-193.359375,25.87890625
38,30.2734375,229.4921875,-322.75390625,29.296875
39,39.0625,295.8984375,-250.48828125,41.015625
40,54.6875,336.42578125,-99.609375,46.875
41,45.41015625,244.62890625,-228.02734375,40.0390625
42,24.90234375,191.89453125,-356.93359375,35.15625
43,21.97265625,267.08984375,-229.98046875,37.59765625
44,20.5078125,333.49609375,-35.64453125,22.4609375
45,16.11328125,223.14453125,-222.16796875,8.7890625
46,13.18359375,248.53515625,-249.0234375,5.37109375
47,12.20703125,290.52734375,-176.26953125,7.32421875
48,23.92578125,274.90234375,-182.6171875,15.625
49,22.94921875,237.3046875,-235.3515625,5.859375
50,11.23046875,204.1015625,-293.45703125,-6.8359375
51,4.39453125,282.2265625,-179.19921875,-1.46484375
52,-1.953125,279.296875,-146.484375,-1.46484375
53,2.44140625,181.15234375,-291.015625,-9.765625
54,-0.48828125,221.19140625,-245.60546875,-12.20703125
55,-2.9296875,279.296875,-121.09375,-23.4375
56,-4.8828125,261.71875,-134.765625,-31.73828125
57,7.8125,158.203125,-301.26953125,-10.7421875
58,15.13671875,162.109375,-390.13671875,11.23046875
59,10.7421875,364.74609375,-63.4765625,12.20703125
60,18.06640625,274.90234375,-64.453125,14.16015625
61,24.4140625,209.9609375,-253.41796875,20.01953125
62,20.5078125,264.6484375,-209.9609375,14.16015625
63,6.8359375,266.11328125,-141.11328125,11.23046875
64,-0.9765625,200.1953125,-219.7265625,0.9765625
65,-3.41796875,172.36328125,-312.98828125,-4.8828125
66,-12.20703125,233.88671875,-231.4453125,4.39453125
67,-2.9296875,268.06640625,-127.44140625,7.8125
68,10.7421875,249.51171875,-134.765625,13.671875
69,7.32421875,143.06640625,-374.0234375,23.4375
70,0.48828125,246.58203125,-238.76953125,21.97265625
71,4.8828125,339.84375,40.52734375,13.18359375
72,14.6484375,217.28515625,-169.921875,20.99609375
73,27.83203125,250.48828125,-203.61328125,28.3203125
74,39.0625,330.078125,-49.31640625,38.0859375
75,37.59765625,292.96875,-82.51953125,39.55078125
76,29.78515625,238.28125,-191.89453125,19.04296875
77,12.6953125,227.5390625,-230.46875,11.23046875
78,5.37109375,303.22265625,-92.28515625,2.9296875
79,26.3671875,304.19921875,-87.890625,13.18359375
80,47.36328125,204.58984375,-223.6328125,39.55078125
81,8.7890625,208.984375,-287.59765625,16.11328125
82,-38.57421875,395.5078125,-21.97265625,-27.83203125
83,-32.71484375,335.44921875,0.48828125,-36.1328125
84,-29.296875,255.859375,-219.23828125,-34.1796875
85,-39.55078125,320.3125,-129.8828125,-45.41015625
86,-69.82421875,320.3125,-69.82421875,-62.01171875
87,-80.078125,278.3203125,-157.71484375,-66.89453125
88,-83.49609375,251.46484375,-221.6796875,-69.82421875
96,-91.30859375,263.18359375,-86.9140625,-77.63671875
97,-90.33203125,320.3125,43.45703125,-74.21875
98,-83.0078125,260.25390625,15.625,-60.05859375
99,-73.2421875,223.14453125,-49.31640625,-41.50390625
100,-51.7578125,212.890625,-33.69140625,-39.55078125
101,-43.9453125,218.75,-15.625,-35.15625
102,-47.36328125,280.2734375,99.609375,-31.25
103,-36.62109375,199.21875,32.2265625,-26.85546875
104,-30.76171875,197.265625,-41.015625,-17.578125
105,-23.92578125,345.703125,236.328125,-14.6484375
106,-18.06640625,253.41796875,178.7109375,-8.7890625
107,-16.6015625,189.94140625,14.6484375,-10.25390625
108,-18.06640625,229.4921875,21.484375,-19.04296875
109,-24.90234375,277.34375,117.1875,-14.16015625
110,-18.06640625,228.515625,94.23828125,-5.37109375
111,-15.13671875,187.98828125,-69.82421875,1.953125
112,-19.53125,248.53515625,-26.3671875,-3.90625
113,-26.3671875,227.5390625,10.25390625,-10.7421875
114,-20.5078125,229.98046875,-0.9765625,-10.7421875
115,-17.08984375,162.59765625,-169.43359375,-6.8359375
116,-22.94921875,238.28125,-125.0,-0.9765625
117,-24.90234375,354.4921875,146.97265625,-8.7890625
118,-18.5546875,214.35546875,-84.9609375,-8.30078125
119,-19.04296875,222.16796875,-173.33984375,-8.30078125
120,-21.97265625,278.3203125,-83.49609375,-8.7890625
121,-19.53125,256.34765625,-141.6015625,-4.8828125
122,-16.11328125,211.42578125,-240.234375,-10.25390625
123,-12.6953125,227.05078125,-207.51953125,-9.765625
124,-23.4375,265.13671875,-106.4453125,-6.34765625
125,-21.484375,225.5859375,-167.48046875,-16.6015625
126,-10.25390625,182.12890625,-195.80078125,-17.08984375
127,-8.7890625,189.453125,-207.51953125,-5.37109375
128,-4.8828125,332.03125,45.41015625,-5.859375
129,-2.44140625,256.34765625,107.421875,-4.8828125
130,-0.9765625,111.328125,-143.5546875,0.0
131,14.16015625,158.69140625,-71.2890625,6.8359375
132,30.76171875,234.86328125,161.62109375,22.94921875
133,37.109375,173.828125,115.72265625,34.1796875
134,45.41015625,160.15625,40.0390625,47.36328125
136,49.31640625,190.91796875,180.17578125,53.22265625
137,35.64453125,149.4140625,113.28125,33.69140625
138,37.109375,99.12109375,-12.20703125,30.2734375
139,26.3671875,201.66015625,145.99609375,34.66796875
140,20.99609375,299.8046875,456.54296875,20.01953125
141,20.01953125,147.4609375,225.09765625,15.13671875
142,18.06640625,157.2265625,167.48046875,11.23046875
143,20.99609375,196.77734375,285.15625,13.18359375
144,39.0625,175.29296875,280.76171875,29.296875
145,45.41015625,119.140625,212.40234375,20.99609375
146,12.6953125,105.46875,178.7109375,10.7421875
147,-8.7890625,167.96875,318.84765625,5.37109375
148,-2.44140625,111.328125,316.40625,-0.48828125
149,-9.765625,16.11328125,157.71484375,0.0
150,-5.37109375,82.03125,201.171875,6.34765625
151,11.23046875,167.48046875,390.625,2.44140625
152,5.859375,120.1171875,368.65234375,-0.48828125
153,-1.46484375,48.828125,204.1015625,6.8359375
154,-8.30078125,60.05859375,219.23828125,4.8828125
155,1.46484375,151.85546875,379.39453125,9.27734375
156,6.8359375,115.72265625,299.8046875,13.671875
157,7.8125,104.98046875,200.68359375,7.8125
158,18.06640625,150.390625,235.83984375,11.71875
159,11.23046875,155.76171875,311.5234375,6.34765625
160,-0.48828125,87.890625,196.77734375,-12.6953125
161,-23.4375,54.6875,75.68359375,-14.16015625
162,-26.85546875,140.13671875,185.05859375,-15.13671875
163,-20.99609375,175.29296875,294.43359375,-17.08984375
164,-22.4609375,107.91015625,191.40625,-18.06640625
165,-20.99609375,56.640625,-47.36328125,-18.06640625
166,-38.0859375,182.12890625,117.1875,-33.203125
167,-48.33984375,208.49609375,320.80078125,-53.22265625
168,-46.875,94.7265625,95.703125,-50.78125
169,-47.36328125,132.8125,14.6484375,-41.50390625
170,-40.52734375,221.6796875,166.9921875,-30.76171875
171,-11.71875,199.21875,186.03515625,-13.671875
172,-22.94921875,132.32421875,40.52734375,-22.4609375
173,-54.19921875,117.67578125,-32.71484375,-47.36328125
174,-43.45703125,204.58984375,103.02734375,-34.66796875
175,-33.203125,230.46875,187.5,-20.99609375
176,-8.30078125,140.625,9.765625,-2.44140625
177,4.8828125,168.9453125,-16.6015625,15.625
178,-0.9765625,300.29296875,212.890625,2.9296875
179,4.8828125,229.00390625,110.83984375,-9.27734375
180,6.8359375,175.29296875,-67.87109375,0.0
181,19.53125,249.51171875,24.90234375,1.953125
182,9.765625,291.015625,130.859375,-8.30078125
183,2.44140625,244.62890625,46.875,-2.9296875
184,3.90625,205.56640625,-70.3125,0.48828125
185,-9.765625,246.58203125,-55.17578125,-2.44140625
186,2.44140625,309.5703125,88.37890625,11.71875
187,10.7421875,270.01953125,53.7109375,32.71484375
188,-4.39453125,261.71875,-81.0546875,25.87890625
189,-7.8125,335.44921875,8.30078125,21.97265625
190,0.0,313.4765625,50.78125,20.5078125
191,2.44140625,260.7421875,-62.5,8.7890625
192,0.48828125,233.3984375,-257.8125,8.30078125
193,1.953125,370.60546875,-72.75390625,1.46484375
194,0.9765625,360.83984375,47.36328125,2.9296875
195,16.11328125,283.69140625,-168.45703125,16.6015625
196,28.3203125,342.7734375,-147.94921875,23.4375
197,25.87890625,361.328125,-99.609375,14.6484375
198,24.4140625,386.71875,-85.9375,13.18359375
199,24.4140625,317.3828125,-196.2890625,22.4609375
200,28.80859375,326.66015625,-294.43359375,28.80859375
201,23.92578125,476.07421875,-46.875,28.3203125
202,18.06640625,386.23046875,-95.703125,25.87890625
203,24.4140625,330.078125,-295.8984375,36.1328125
204,34.66796875,371.58203125,-278.3203125,33.69140625
205,20.5078125,391.11328125,-196.77734375,26.85546875
206,19.53125,339.84375,-257.32421875,28.3203125
207,25.87890625,308.10546875,-378.41796875,24.4140625
208,20.99609375,359.86328125,-313.4765625,20.5078125
209,29.296875,333.0078125,-269.04296875,17.578125
210,27.83203125,328.125,-262.6953125,15.625
211,32.71484375,246.09375,-415.0390625,21.97265625
212,28.80859375,321.2890625,-334.9609375,22.4609375
213,18.5546875,425.78125,-13.18359375,16.11328125
214,14.6484375,274.4140625,-220.703125,23.4375
215,10.25390625,268.06640625,-282.2265625,28.3203125
216,9.765625,303.7109375,-177.734375,14.16015625
217,10.25390625,271.97265625,-220.703125,11.23046875
218,13.18359375,216.796875,-310.05859375,15.625
219,20.5078125,225.5859375,-262.6953125,11.71875
220,20.5078125,229.4921875,-197.75390625,6.8359375
221,12.6953125,177.24609375,-273.92578125,-0.9765625
222,8.7890625,140.13671875,-279.78515625,-4.39453125
223,15.13671875,128.90625,-285.15625,11.71875
224,10.7421875,215.8203125,-85.9375,6.8359375
225,3.90625,147.94921875,-38.57421875,-9.765625
226,8.30078125,-21.97265625,-307.6171875,-4.39453125
227,5.859375,-22.94921875,-301.7578125,-4.39453125
228,2.44140625,47.36328125,-75.68359375,-4.39453125
229,7.8125,-53.7109375,-168.45703125,1.953125
230,11.23046875,-105.95703125,-276.3671875,-1.46484375
231,7.8125,-67.3828125,-183.10546875,0.48828125
232,9.27734375,-122.0703125,-158.69140625,11.23046875
233,14.16015625,-171.38671875,-214.84375,11.71875
234,13.18359375,-226.5625,-352.05078125,8.7890625
235,18.5546875,-155.2734375,-206.54296875,14.16015625
236,26.85546875,-80.078125,43.9453125,18.5546875
237,29.296875,-207.03125,-164.55078125,19.53125
238,28.80859375,-186.5234375,-221.19140625,13.671875
239,30.2734375,-127.9296875,-87.890625,9.27734375
240,37.109375,-171.38671875,-61.5234375,11.71875
241,30.76171875,-238.28125,-191.40625,7.8125
242,29.296875,-247.55859375,-233.88671875,0.48828125
243,28.3203125,-183.59375,-77.1484375,3.41796875
244,28.3203125,-228.515625,-113.76953125,11.71875
245,22.4609375,-315.91796875,-251.46484375,14.6484375
246,-2.44140625,-282.71484375,-238.76953125,-8.7890625
247,-13.671875,-178.22265625,-25.390625,-21.484375
248,-18.06640625,-259.765625,-39.55078125,-29.78515625
249,-14.6484375,-353.515625,-242.67578125,-37.59765625
250,-14.6484375,-320.80078125,-199.70703125,-33.203125
251,-30.2734375,-301.7578125,-116.2109375,-29.296875
252,-21.97265625,-351.5625,-193.84765625,-23.4375
253,-14.6484375,-427.24609375,-316.89453125,-11.71875
254,-6.34765625,-359.375,-223.14453125,1.46484375
255,-6.34765625,-269.04296875,-15.13671875,-1.953125
256,7.32421875,-361.81640625,-139.6484375,4.39453125
257,34.66796875,-388.18359375,-262.20703125,24.90234375
258,31.25,-293.45703125,-103.02734375,33.69140625
259,40.0390625,-272.94921875,35.64453125,40.0390625
260,48.828125,-341.30859375,-20.01953125,45.8984375
261,50.78125,-416.015625,-225.09765625,53.7109375
262,52.734375,-304.19921875,-58.59375,53.22265625
268,58.59375,-322.265625,45.8984375,49.8046875
269,56.15234375,-352.5390625,-53.7109375,43.9453125
270,57.12890625,-202.63671875,178.22265625,44.921875
271,58.59375,-213.8671875,261.23046875,44.43359375
272,67.3828125,-334.47265625,19.04296875,46.38671875
273,60.05859375,-299.31640625,31.25,40.52734375
274,39.0625,-199.21875,196.2890625,39.55078125
275,42.48046875,-226.07421875,165.0390625,39.55078125
276,43.9453125,-309.5703125,36.1328125,32.71484375
277,39.0625,-254.39453125,101.5625,29.296875
278,35.15625,-158.203125,275.390625,25.87890625
279,31.25,-218.26171875,206.54296875,15.625
280,24.4140625,-239.2578125,133.7890625,1.46484375
281,10.25390625,-198.2421875,173.33984375,2.9296875
282,7.32421875,-177.734375,253.41796875,-1.953125
283,14.6484375,-181.15234375,260.7421875,0.9765625
284,16.11328125,-125.9765625,274.4140625,6.34765625
285,13.671875,-92.28515625,342.28515625,-2.9296875
286,-1.953125,-125.48828125,360.83984375,-14.16015625
287,-22.4609375,-182.12890625,282.2265625,-34.1796875
288,-37.59765625,-207.51953125,150.390625,-46.875
289,-56.640625,-85.9375,322.75390625,-59.5703125
290,-64.94140625,-100.5859375,379.39453125,-70.3125
291,-63.4765625,-176.7578125,196.77734375,-62.5
292,-60.05859375,-143.5546875,173.828125,-52.24609375
293,-44.921875,-63.4765625,284.1796875,-39.55078125
294,-44.43359375,-38.0859375,347.65625,-35.64453125
295,-67.87109375,-124.0234375,235.83984375,-62.98828125
296,-63.96484375,-180.17578125,66.89453125,-72.75390625
297,-39.55078125,39.0625,370.1171875,-42.48046875
299,-25.390625,-82.51953125,266.6015625,-20.5078125
300,0.9765625,-6.34765625,324.70703125,-5.37109375
302,15.625,38.57421875,447.265625,4.8828125
303,18.06640625,52.24609375,398.92578125,-3.41796875
304,22.4609375,71.2890625,398.92578125,5.859375
305,23.92578125,58.10546875,382.32421875,18.5546875
306,20.99609375,112.3046875,433.10546875,20.99609375
307,17.08984375,46.38671875,296.875,20.01953125
308,23.92578125,127.9296875,369.62890625,25.87890625
310,10.7421875,101.07421875,331.54296875,16.6015625
311,27.34375,159.66796875,300.29296875,24.90234375
312,29.296875,233.88671875,416.015625,13.671875
313,23.92578125,183.10546875,389.6484375,6.34765625
314,20.01953125,136.23046875,260.7421875,7.8125
315,22.4609375,167.96875,250.9765625,1.953125
316,22.4609375,186.5234375,293.9453125,1.46484375
317,17.08984375,158.69140625,219.7265625,1.953125
318,16.11328125,122.0703125,162.59765625,-9.27734375
319,1.46484375,148.92578125,178.22265625,-24.4140625
320,-7.8125,262.20703125,376.953125,-35.15625
321,-6.8359375,180.17578125,335.9375,-38.0859375
322,-10.7421875,119.62890625,177.734375,-30.76171875
323,-11.23046875,171.875,233.88671875,-28.3203125
324,-5.37109375,166.015625,242.67578125,-22.4609375
325,-9.765625,145.99609375,207.51953125,-22.4609375
326,-21.97265625,116.2109375,145.99609375,-25.87890625
327,-31.25,172.8515625,215.8203125,-24.90234375
328,-24.90234375,185.546875,313.96484375,-29.78515625
329,-19.04296875,123.046875,205.078125,-26.3671875
330,-29.78515625,85.9375,89.84375,-20.01953125
331,-34.66796875,148.92578125,203.61328125,-20.01953125
332,-20.99609375,224.12109375,414.0625,-22.94921875
333,-20.99609375,124.0234375,244.140625,-28.80859375
334,-26.85546875,148.4375,225.09765625,-29.296875
335,-20.01953125,194.82421875,321.77734375,-25.390625
336,-14.6484375,161.1328125,299.8046875,-17.578125
337,-18.06640625,126.46484375,210.44921875,-16.11328125
338,-21.97265625,113.76953125,182.12890625,-24.90234375
339,-18.5546875,173.33984375,265.13671875,-29.296875
340,-21.484375,178.22265625,278.80859375,-35.64453125
341,-25.87890625,102.05078125,181.15234375,-38.0859375
342,-20.01953125,77.1484375,45.41015625,-25.390625
343,-9.765625,221.19140625,284.66796875,-27.34375
344,-3.41796875,234.86328125,443.84765625,-32.71484375
345,-10.25390625,127.9296875,208.49609375,-28.80859375
346,-19.53125,170.8984375,225.09765625,-31.25
347,-19.04296875,207.03125,308.10546875,-31.73828125
348,-27.83203125,168.9453125,243.65234375,-32.2265625
349,-29.296875,154.296875,173.33984375,-31.73828125
350,-25.87890625,190.91796875,209.9609375,-37.109375
351,-29.78515625,209.47265625,284.66796875,-32.2265625
352,-29.78515625,157.2265625,205.56640625,-24.90234375
353,-28.3203125,113.76953125,63.4765625,-29.296875
354,-32.71484375,204.1015625,171.875,-39.0625
355,-38.57421875,252.9296875,344.23828125,-48.33984375
356,-33.69140625,187.98828125,269.53125,-41.50390625
357,-28.80859375,193.84765625,166.50390625,-31.25
358,-11.71875,257.8125,274.90234375,-15.625
359,-20.5078125,208.49609375,266.11328125,-25.390625
360,-45.41015625,152.34375,124.51171875,-54.19921875
361,-36.1328125,179.19921875,148.92578125,-45.41015625
362,-30.2734375,234.375,221.6796875,-27.34375
363,-28.3203125,221.19140625,201.171875,-34.66796875
364,-30.2734375,159.66796875,126.953125,-36.1328125
365,-36.1328125,64.453125,-117.67578125,-30.2734375
366,-28.3203125,237.3046875,143.06640625,-24.4140625
367,-22.94921875,307.12890625,391.11328125,-29.78515625
368,-7.8125,139.16015625,84.9609375,-24.90234375
369,1.953125,195.80078125,133.7890625,-10.7421875
370,-11.71875,263.671875,297.36328125,-15.625
371,-17.578125,189.94140625,166.015625,-13.18359375
372,-17.578125,166.9921875,80.56640625,-18.06640625
373,-24.90234375,201.171875,155.2734375,-26.85546875
374,-23.92578125,199.70703125,200.1953125,-19.53125
375,-23.92578125,165.52734375,120.60546875,-18.5546875
376,-35.64453125,119.62890625,4.39453125,-22.94921875
377,-32.2265625,174.8046875,48.33984375,-22.4609375
378,-32.71484375,231.93359375,175.78125,-31.25
379,-34.1796875,196.77734375,174.8046875,-31.73828125
380,-14.16015625,95.703125,-83.984375,-4.8828125
381,-10.7421875,189.453125,27.34375,-3.90625
382,-25.390625,229.00390625,212.40234375,-16.11328125
383,-28.3203125,137.20703125,29.296875,-18.06640625
384,-24.90234375,203.61328125,62.98828125,-21.97265625
385,-22.94921875,241.69921875,199.70703125,-16.6015625
386,-16.6015625,174.31640625,177.24609375,-13.18359375
387,-20.5078125,129.39453125,84.47265625,-19.53125
388,-31.73828125,105.95703125,71.2890625,-25.390625
389,-34.1796875,119.140625,98.6328125,-28.3203125
390,-32.2265625,179.19921875,236.328125,-30.2734375
391,-28.3203125,106.4453125,174.31640625,-30.76171875
392,-19.53125,100.09765625,149.4140625,-22.94921875
393,-15.13671875,180.6640625,323.73046875,-22.94921875
394,-16.6015625,162.109375,318.84765625,-26.85546875
395,-19.53125,68.359375,157.2265625,-30.76171875
396,-11.71875,87.890625,130.37109375,-28.3203125
397,1.953125,253.41796875,435.05859375,-25.390625
398,15.625,203.125,451.66015625,-20.5078125
399,24.90234375,98.6328125,224.12109375,-15.625
400,27.83203125,135.25390625,246.09375,-3.41796875
401,22.94921875,163.57421875,364.2578125,0.9765625
402,12.20703125,174.31640625,385.7421875,-0.48828125
403,11.71875,114.2578125,252.44140625,12.20703125
404,19.04296875,162.59765625,330.078125,17.578125
406,17.08984375,138.671875,353.02734375,22.4609375
407,18.06640625,169.921875,336.9140625,18.06640625
408,23.4375,223.14453125,447.75390625,19.53125
409,24.90234375,201.171875,423.33984375,21.97265625
410,30.76171875,141.6015625,299.8046875,16.6015625
411,27.83203125,152.83203125,251.953125,5.859375
412,15.13671875,197.75390625,379.8828125,-5.859375
413,6.8359375,144.04296875,302.24609375,-11.71875
414,6.8359375,121.58203125,231.93359375,-8.30078125
415,7.32421875,75.68359375,104.00390625,-1.953125
416,11.23046875,217.28515625,321.2890625,7.32421875
418,-2.44140625,113.28125,256.34765625,-26.85546875
419,-4.8828125,146.484375,254.8828125,-28.3203125
420,-9.765625,178.7109375,375.0,-15.13671875
421,-20.5078125,129.8828125,309.5703125,-13.18359375
422,-6.8359375,103.515625,220.21484375,2.9296875
423,-0.9765625,150.87890625,292.48046875,3.90625
424,-17.08984375,103.515625,306.15234375,-1.953125
425,-19.53125,75.1953125,246.58203125,-5.37109375
426,-18.5546875,17.578125,108.88671875,-15.625
427,-27.83203125,97.65625,194.82421875,-18.5546875
429,-16.6015625,59.08203125,332.51953125,-16.6015625
430,-23.4375,71.77734375,207.03125,-18.5546875
431,-24.90234375,126.953125,332.51953125,-30.2734375
432,-25.87890625,93.26171875,334.47265625,-30.76171875
433,-32.2265625,47.36328125,205.56640625,-30.2734375
434,-32.71484375,49.31640625,166.50390625,-32.71484375
435,-32.71484375,104.98046875,300.29296875,-36.62109375
436,-29.78515625,72.265625,265.625,-33.203125
437,-21.97265625,10.25390625,124.51171875,-29.296875
438,-20.99609375,77.1484375,203.61328125,-30.2734375
439,-9.27734375,130.37109375,341.30859375,-17.578125
440,-2.9296875,94.7265625,244.140625,-13.671875
441,-16.6015625,42.96875,143.06640625,-17.578125
442,-11.71875,36.1328125,48.33984375,-6.8359375
443,-1.953125,211.9140625,340.33203125,-12.20703125
444,-6.8359375,155.2734375,377.9296875,-18.06640625
445,-9.27734375,89.84375,127.9296875,-16.11328125
446,-16.11328125,142.08984375,179.6875,-18.5546875
447,-16.6015625,151.3671875,242.1875,-20.5078125
448,-15.625,101.5625,124.0234375,-19.53125
449,-30.2734375,89.35546875,1.46484375,-24.4140625
450,-25.87890625,173.33984375,124.0234375,-28.3203125
451,-3.90625,184.5703125,214.84375,-21.97265625
452,3.41796875,128.90625,119.140625,-15.13671875
453,-3.90625,42.48046875,-137.20703125,-10.25390625
454,-9.27734375,110.3515625,-68.359375,-13.671875
455,-1.46484375,183.59375,212.40234375,-8.30078125
456,2.9296875,90.8203125,62.01171875,-3.90625
457,8.30078125,105.95703125,-27.83203125,-8.30078125
458,13.671875,168.9453125,96.19140625,0.48828125
459,16.6015625,117.67578125,70.3125,9.27734375
460,19.04296875,56.15234375,-90.8203125,8.30078125
461,8.30078125,48.828125,-160.15625,5.859375
462,5.37109375,127.9296875,21.484375,8.7890625
463,12.6953125,123.53515625,61.5234375,14.6484375
464,10.25390625,29.78515625,-151.85546875,15.13671875
465,10.7421875,48.828125,-140.13671875,7.8125
466,13.671875,117.67578125,-2.44140625,14.6484375
467,15.13671875,88.37890625,-58.59375,27.34375
468,24.4140625,-27.34375,-289.55078125,28.3203125
469,20.5078125,30.2734375,-274.4140625,27.83203125
470,4.39453125,184.5703125,69.82421875,24.4140625
471,14.6484375,82.51953125,-39.0625,23.92578125
472,19.53125,6.34765625,-281.73828125,19.04296875
473,4.8828125,43.9453125,-245.1171875,5.859375
474,-3.90625,84.47265625,-143.06640625,4.39453125
475,-2.44140625,61.5234375,-158.69140625,4.8828125
476,5.859375,-53.22265625,-414.0625,9.27734375
477,10.25390625,24.90234375,-338.8671875,20.99609375
478,3.90625,95.703125,-52.24609375,10.25390625
479,13.18359375,-8.30078125,-231.4453125,7.32421875
480,19.04296875,-0.48828125,-276.3671875,9.765625
481,0.48828125,23.92578125,-171.875,-3.90625
482,-1.46484375,-13.18359375,-210.9375,-6.8359375
483,3.41796875,-56.15234375,-331.54296875,-6.34765625
484,-9.27734375,-65.4296875,-334.47265625,-16.6015625
485,-17.578125,-32.71484375,-217.7734375,-20.5078125
486,-18.06640625,-15.13671875,-153.80859375,-22.4609375
487,-22.4609375,-86.42578125,-259.765625,-24.4140625
488,-20.99609375,-102.05078125,-317.3828125,-14.6484375
489,-15.13671875,-31.73828125,-195.3125,-15.625
490,-20.5078125,-36.62109375,-210.9375,-23.92578125
491,-14.6484375,-135.7421875,-406.25,-13.18359375
492,-0.9765625,-68.84765625,-383.7890625,-1.953125
493,-2.44140625,80.56640625,-36.62109375,-10.25390625
494,-17.578125,-26.85546875,-160.64453125,-14.6484375
495,-25.87890625,-22.4609375,-293.45703125,-26.85546875
496,-30.2734375,5.37109375,-232.91015625,-41.015625
497,-31.73828125,-26.85546875,-249.51171875,-39.55078125
498,-36.62109375,17.578125,-194.3359375,-34.1796875
499,-38.0859375,-39.55078125,-348.14453125,-28.3203125
500,-41.50390625,56.640625,-250.48828125,-26.3671875
501,-38.0859375,169.43359375,88.37890625,-34.1796875
502,-30.2734375,41.9921875,-100.09765625,-36.62109375
503,-40.0390625,57.12890625,-165.52734375,-43.9453125
504,-40.0390625,105.46875,-71.2890625,-46.38671875
505,-21.97265625,87.40234375,-51.7578125,-23.92578125
506,-32.71484375,38.57421875,-185.546875,-31.73828125
507,-54.19921875,62.98828125,-195.80078125,-62.5
508,-55.17578125,84.9609375,-115.72265625,-73.73046875
509,-57.6171875,63.4765625,-203.125,-72.265625
510,-54.6875,58.10546875,-197.265625,-66.40625
511,-60.546875,79.58984375,-210.9375,-72.75390625
512,-82.03125,173.828125,-46.875,-92.7734375
513,-83.984375,142.578125,24.90234375,-83.49609375
514,-79.1015625,28.80859375,-203.125,-75.1953125
515,-84.47265625,35.15625,-217.7734375,-83.0078125
516,-71.77734375,106.4453125,-61.03515625,-72.75390625
517,-55.6640625,61.03515625,-98.14453125,-70.3125
518,-58.59375,-35.15625,-287.59765625,-63.4765625
519,-64.94140625,25.390625,-238.76953125,-63.4765625
520,-74.21875,75.1953125,-65.4296875,-65.91796875
521,-65.91796875,20.99609375,-201.171875,-61.5234375
522,-61.5234375,-1.953125,-346.6796875,-62.98828125
523,-67.3828125,63.4765625,-227.5390625,-64.453125
524,-70.80078125,154.78515625,-11.71875,-72.75390625
525,-67.3828125,85.44921875,-158.203125,-70.3125
526,-61.5234375,71.2890625,-247.55859375,-69.3359375
527,-61.5234375,121.09375,-183.10546875,-61.5234375
528,-62.01171875,144.04296875,-81.54296875,-50.78125
529,-61.5234375,86.9140625,-188.96484375,-59.08203125
530,-51.7578125,125.9765625,-256.34765625,-47.36328125
531,-34.1796875,222.65625,-51.7578125,-25.87890625
532,-22.4609375,166.9921875,-62.98828125,-20.01953125
533,-32.2265625,97.65625,-251.953125,-16.11328125
534,-34.66796875,159.1796875,-253.90625,-10.7421875
535,-22.4609375,258.30078125,7.32421875,-20.99609375
536,-7.32421875,170.8984375,2.44140625,-15.13671875
537,-5.37109375,88.8671875,-212.890625,-12.6953125
538,-10.7421875,113.28125,-173.828125,-8.7890625
539,-27.83203125,105.46875,-78.61328125,-14.16015625
540,-38.0859375,18.5546875,-190.91796875,-33.69140625
541,-24.4140625,-61.03515625,-415.0390625,-25.87890625
542,-28.80859375,5.37109375,-308.59375,-10.7421875
543,-21.97265625,60.546875,-94.23828125,-7.8125
544,-20.99609375,-42.96875,-229.00390625,-16.11328125
545,-36.62109375,-167.48046875,-494.62890625,-23.4375
546,-38.0859375,-100.5859375,-359.375,-26.85546875
547,-40.0390625,-45.8984375,-83.0078125,-33.69140625
548,-41.015625,-168.9453125,-243.65234375,-37.59765625
549,-40.52734375,-163.0859375,-307.12890625,-38.57421875
550,-43.9453125,-126.46484375,-201.66015625,-44.921875
551,-40.0390625,-163.0859375,-156.25,-47.8515625
552,-44.921875,-208.0078125,-240.72265625,-47.8515625
553,-47.36328125,-182.12890625,-211.9140625,-52.734375
554,-50.78125,-122.55859375,-91.796875,-55.6640625
555,-64.94140625,-160.15625,-160.15625,-60.546875
556,-68.84765625,-181.15234375,-198.73046875,-60.05859375
557,-71.2890625,-170.8984375,-161.1328125,-62.01171875
558,-83.49609375,-142.578125,-63.96484375,-78.61328125
559,-83.984375,-133.7890625,-21.97265625,-82.51953125
560,-79.58984375,-225.09765625,-173.33984375,-82.03125
561,-80.56640625,-273.4375,-368.1640625,-75.68359375
562,-83.49609375,-98.6328125,-60.546875,-75.1953125
563,-78.125,-116.69921875,83.0078125,-82.51953125
564,-77.1484375,-208.0078125,-199.70703125,-77.1484375
565,-75.68359375,-140.13671875,-162.59765625,-76.171875
566,-65.4296875,-108.88671875,-62.01171875,-74.21875
567,-66.40625,-144.04296875,-134.765625,-63.4765625
568,-64.94140625,-177.734375,-246.09375,-59.08203125
569,-61.5234375,-125.48828125,-198.73046875,-63.4765625
570,-58.10546875,-104.00390625,-125.48828125,-64.94140625
571,-53.7109375,-101.5625,-106.93359375,-64.94140625
572,-54.6875,-167.96875,-279.296875,-61.03515625
573,-62.01171875,-86.42578125,-226.07421875,-51.7578125
574,-56.15234375,36.1328125,111.328125,-47.36328125
575,-51.7578125,-97.65625,-96.19140625,-45.41015625
576,-45.41015625,-83.0078125,-190.91796875,-42.96875
577,-52.734375,-25.87890625,-82.51953125,-48.828125
578,-59.5703125,-45.8984375,-114.74609375,-56.15234375
579,-46.38671875,-44.921875,-145.99609375,-48.828125
580,-45.8984375,-54.6875,-149.90234375,-42.48046875
581,-41.015625,-28.80859375,-139.6484375,-44.921875
582,-20.01953125,58.59375,-16.6015625,-42.48046875
583,-29.296875,3.90625,-53.7109375,-34.66796875
584,-43.9453125,-14.6484375,-247.0703125,-30.76171875
585,-33.69140625,171.875,73.73046875,-27.83203125
586,-27.34375,126.46484375,182.12890625,-22.4609375
587,-26.85546875,38.0859375,-83.0078125,-20.01953125
588,-25.87890625,95.21484375,-33.203125,-29.296875
589,-12.20703125,145.5078125,141.6015625,-18.5546875
590,6.34765625,94.7265625,94.23828125,0.9765625
591,17.08984375,58.10546875,-20.5078125,-0.9765625
592,-1.953125,80.078125,35.15625,-26.3671875
593,-13.671875,63.4765625,99.609375,-37.109375
594,-14.6484375,62.01171875,144.04296875,-33.203125
595,-13.671875,-22.94921875,18.06640625,-18.06640625
596,-9.27734375,30.2734375,99.12109375,-6.8359375
597,-11.23046875,92.28515625,354.4921875,-11.23046875
598,-4.8828125,-22.94921875,148.4375,-0.48828125
599,-13.671875,11.23046875,127.44140625,-11.23046875
600,-13.671875,48.33984375,245.1171875,-15.13671875
601,8.30078125,8.30078125,204.1015625,-15.13671875
602,5.859375,-27.83203125,82.51953125,-18.5546875
603,-12.20703125,0.48828125,112.79296875,-7.32421875
604,-17.578125,34.66796875,212.40234375,-12.6953125
605,-10.25390625,16.11328125,116.2109375,-10.25390625
606,-10.25390625,9.765625,62.5,-5.37109375
607,-20.5078125,39.55078125,73.2421875,-8.7890625
608,-11.23046875,146.484375,291.9921875,-10.25390625
609,-0.9765625,74.70703125,278.80859375,-11.23046875
610,-13.18359375,-14.16015625,75.1953125,-11.23046875
611,-27.34375,2.44140625,107.421875,-23.4375
612,-25.87890625,20.99609375,185.546875,-32.2265625
613,-17.578125,-30.76171875,98.6328125,-25.87890625
614,-22.94921875,-100.5859375,-32.71484375,-21.97265625
615,-25.390625,-51.26953125,73.73046875,-25.87890625
616,-33.69140625,-33.203125,181.15234375,-26.85546875
617,-39.0625,-95.703125,42.48046875,-29.296875
618,-28.80859375,-129.39453125,-99.609375,-30.76171875
619,-19.04296875,-62.5,8.7890625,-21.484375
620,-9.27734375,22.4609375,241.69921875,-17.578125
621,-11.71875,-72.265625,48.828125,-20.01953125
622,-20.5078125,-49.8046875,-15.625,-24.4140625
623,-2.44140625,-18.06640625,80.078125,-22.4609375
624,0.9765625,-49.8046875,70.80078125,-20.99609375
625,-18.5546875,-93.26171875,-32.71484375,-16.6015625
626,-18.06640625,-96.6796875,-37.59765625,-12.20703125
627,-24.90234375,-77.63671875,43.9453125,-12.6953125
628,-41.015625,-107.91015625,39.55078125,-18.06640625
629,-40.52734375,-145.01953125,15.625,-20.01953125
630,-28.80859375,-201.66015625,-144.53125,-10.7421875
631,-23.92578125,-83.49609375,101.07421875,-8.7890625
632,-23.4375,-88.8671875,242.67578125,-16.11328125
633,-14.16015625,-193.359375,17.578125,-15.625
634,-8.7890625,-147.94921875,82.03125,-15.625
635,-9.27734375,-112.3046875,178.22265625,-18.5546875
636,-4.8828125,-148.4375,110.3515625,-19.04296875
637,-4.8828125,-163.57421875,24.4140625,-12.6953125
638,-3.41796875,-107.421875,98.6328125,-11.23046875
639,3.41796875,-78.61328125,174.31640625,-5.859375
640,19.53125,-101.07421875,115.72265625,-1.953125
641,14.16015625,-187.01171875,-86.9140625,8.30078125
642,2.9296875,-105.95703125,8.7890625,8.30078125
643,12.6953125,-5.859375,260.7421875,-11.23046875
644,10.7421875,-81.0546875,162.109375,-7.8125
645,1.46484375,-129.8828125,-52.24609375,3.41796875
646,-7.32421875,-36.1328125,69.82421875,0.9765625
647,-4.8828125,-21.484375,205.56640625,-1.46484375
648,9.27734375,-93.75,26.3671875,5.37109375
649,1.953125,-69.82421875,-5.37109375,2.9296875
650,-5.37109375,-30.2734375,71.2890625,-2.44140625
651,-1.953125,-32.71484375,42.48046875,8.30078125
652,-8.30078125,-64.94140625,-54.6875,7.32421875
653,-3.90625,-68.359375,-106.4453125,-2.44140625
654,-6.34765625,20.99609375,39.0625,-10.25390625
655,-4.8828125,44.921875,84.47265625,-18.5546875
656,-3.90625,-65.91796875,-117.1875,-26.85546875
657,-23.4375,-47.8515625,-195.3125,-29.296875
658,-21.97265625,131.34765625,115.234375,-27.83203125
659,-11.23046875,48.33984375,122.55859375,-26.85546875
660,-21.484375,-34.1796875,-100.09765625,-30.2734375
661,-21.97265625,-4.39453125,-68.359375,-36.62109375
662,-19.53125,11.23046875,4.39453125,-41.9921875
663,-36.1328125,-16.11328125,-5.37109375,-40.0390625
664,-45.41015625,-77.63671875,-97.65625,-32.71484375
665,-35.64453125,-64.453125,-124.0234375,-31.25
666,-27.83203125,-12.6953125,19.53125,-33.203125
667,-22.94921875,-59.5703125,20.01953125,-33.69140625
668,-20.01953125,-92.7734375,-143.06640625,-39.55078125
669,-31.25,-14.6484375,-24.90234375,-36.62109375
670,-35.64453125,-69.3359375,-8.30078125,-33.203125
671,-27.83203125,-97.16796875,-96.6796875,-33.203125
672,-25.87890625,-120.60546875,-215.33203125,-17.578125
673,-25.87890625,-53.22265625,-85.44921875,-11.23046875
674,-18.06640625,13.671875,162.109375,-20.5078125
675,-19.04296875,-102.05078125,-67.87109375,-25.390625
676,-28.3203125,-116.2109375,-139.6484375,-34.1796875
677,-17.08984375,-99.12109375,-116.2109375,-32.71484375
678,-27.83203125,-57.6171875,-58.59375,-34.66796875
679,-31.73828125,-114.74609375,-137.6953125,-41.9921875
680,-22.94921875,-130.859375,-202.63671875,-33.203125
681,-15.625,-45.8984375,-49.8046875,-29.296875
682,-9.765625,-65.4296875,-72.265625,-34.1796875
683,-20.5078125,-169.921875,-290.0390625,-23.4375
684,-17.08984375,-119.140625,-292.96875,-14.6484375
685,-12.6953125,-11.71875,-73.2421875,-14.16015625
686,-16.11328125,-94.23828125,-184.08203125,-16.11328125
687,-14.16015625,-128.90625,-321.2890625,-13.18359375
688,-7.32421875,-104.00390625,-257.8125,-9.27734375
689,-0.9765625,-81.0546875,-190.4296875,-10.7421875
690,1.953125,-75.1953125,-204.58984375,-3.90625
691,3.90625,-167.96875,-370.60546875,-3.90625
692,9.765625,-119.62890625,-294.921875,-1.953125
693,11.71875,-41.50390625,-34.1796875,3.41796875
694,8.30078125,-153.80859375,-262.20703125,6.34765625
695,11.23046875,-134.765625,-308.59375,8.7890625
696,12.6953125,-98.14453125,-178.7109375,9.765625
697,23.4375,-145.01953125,-224.12109375,7.32421875
698,28.3203125,-188.96484375,-333.984375,9.27734375
699,18.5546875,-212.890625,-362.3046875,14.16015625
700,16.6015625,-195.3125,-284.1796875,25.390625
701,26.85546875,-196.2890625,-281.25,15.625
702,23.92578125,-223.14453125,-297.8515625,10.7421875
703,21.97265625,-290.52734375,-471.6796875,29.296875
704,19.04296875,-178.22265625,-243.65234375,30.76171875
705,11.71875,-178.22265625,-37.109375,14.16015625
706,23.4375,-293.45703125,-318.359375,26.85546875
707,33.203125,-241.2109375,-262.6953125,46.38671875
708,42.48046875,-208.984375,-132.8125,48.828125
709,42.96875,-255.37109375,-177.24609375,39.0625
710,43.9453125,-280.2734375,-247.55859375,36.1328125
711,52.734375,-233.3984375,-184.08203125,44.921875
712,55.17578125,-269.53125,-155.2734375,37.59765625
713,63.4765625,-308.59375,-223.6328125,27.34375
714,69.3359375,-373.046875,-341.796875,41.50390625
715,55.6640625,-306.640625,-254.8828125,46.875
716,33.203125,-213.37890625,53.22265625,35.15625
717,21.97265625,-369.62890625,-129.39453125,32.71484375
718,20.5078125,-361.328125,-202.1484375,26.85546875
719,25.87890625,-333.984375,-85.9375,22.4609375
720,17.08984375,-383.7890625,-116.2109375,13.671875
721,7.8125,-424.8046875,-216.796875,5.859375
722,15.625,-413.0859375,-185.546875,11.71875
723,17.08984375,-354.4921875,-62.01171875,20.99609375
724,12.20703125,-380.859375,-117.1875,14.16015625
725,4.8828125,-429.19921875,-230.95703125,11.23046875
726,-1.46484375,-357.421875,-219.23828125,7.32421875
727,8.7890625,-238.28125,24.4140625,1.46484375
728,4.8828125,-313.96484375,-21.97265625,-1.46484375
729,-5.37109375,-390.13671875,-247.55859375,-0.9765625
730,-5.859375,-316.40625,-118.1640625,3.90625
731,-5.859375,-222.65625,55.17578125,-2.9296875
732,0.48828125,-260.7421875,-48.828125,-11.71875
733,-5.859375,-269.53125,-131.8359375,-18.5546875
734,-7.32421875,-208.984375,-48.828125,-16.6015625
735,-3.90625,-176.26953125,42.96875,-16.6015625
736,-13.671875,-220.21484375,-22.94921875,-26.85546875
737,-29.296875,-272.4609375,-212.40234375,-31.25
738,-31.73828125,-144.53125,-65.91796875,-24.90234375
739,-27.34375,-90.8203125,135.25390625,-24.4140625
740,-26.85546875,-177.24609375,-38.0859375,-28.80859375
741,-25.390625,-138.671875,-101.5625,-22.94921875
742,-27.34375,-73.2421875,50.29296875,-23.4375
743,-26.85546875,-86.9140625,69.82421875,-23.92578125
744,-22.4609375,-105.95703125,-10.25390625,-27.34375
745,-37.109375,-110.83984375,-44.43359375,-41.015625
746,-56.15234375,-71.77734375,38.57421875,-48.828125
747,-49.31640625,-100.5859375,25.87890625,-54.6875
748,-40.52734375,-156.25,-72.75390625,-53.7109375
749,-51.7578125,-215.33203125,-267.08984375,-55.17578125
750,-52.24609375,-69.82421875,-39.55078125,-52.734375
751,-35.64453125,-50.29296875,134.765625,-52.734375
752,-42.48046875,-168.45703125,-121.09375,-50.29296875
753,-49.8046875,-135.7421875,-107.421875,-45.41015625
754,-35.15625,-70.80078125,6.8359375,-40.0390625
755,-33.69140625,-89.35546875,-58.59375,-37.59765625
756,-34.66796875,-113.76953125,-136.23046875,-35.15625
757,-31.25,-88.8671875,-156.73828125,-30.2734375
758,-30.76171875,-32.71484375,-67.3828125,-31.73828125
759,-17.08984375,-31.25,-17.08984375,-21.97265625
760,-10.25390625,-123.53515625,-235.83984375,-20.01953125
761,-12.20703125,-71.77734375,-232.91015625,-28.3203125
762,-5.859375,23.4375,-21.484375,-19.04296875
763,1.46484375,-11.23046875,-44.43359375,-12.20703125
764,-10.7421875,-103.02734375,-308.10546875,-19.53125
765,-33.203125,-27.83203125,-233.3984375,-21.484375
766,-31.73828125,43.9453125,-4.8828125,-23.92578125
767,-26.3671875,-51.7578125,-182.6171875,-20.99609375
768,-18.5546875,-27.34375,-215.8203125,-20.5078125
769,-15.13671875,20.5078125,-135.25390625,-13.671875
770,-12.6953125,-10.25390625,-166.015625,-6.8359375
771,-10.25390625,-54.6875,-255.859375,-14.6484375
772,-25.390625,-51.7578125,-263.18359375,-16.11328125
773,-25.87890625,-35.15625,-223.14453125,-16.6015625
774,-14.16015625,11.23046875,-146.484375,-12.6953125
775,-13.18359375,-45.41015625,-187.01171875,-12.20703125
776,-16.6015625,-94.23828125,-371.58203125,-17.578125
777,-14.16015625,73.2421875,-91.796875,-16.11328125
778,-13.18359375,24.4140625,-3.41796875,-12.20703125
779,-6.34765625,-52.734375,-208.0078125,-11.71875
780,-2.44140625,-23.4375,-193.84765625,-9.765625
781,-2.44140625,7.32421875,-107.91015625,-7.32421875
782,0.48828125,-12.20703125,-135.25390625,-5.37109375
783,6.34765625,-6.8359375,-192.3828125,5.37109375
784,19.04296875,24.4140625,-169.921875,5.37109375
785,20.99609375,15.625,-166.50390625,8.30078125
786,25.390625,58.10546875,-122.55859375,19.53125
787,20.99609375,-19.04296875,-251.46484375,15.625
788,14.6484375,73.73046875,-175.29296875,23.4375
789,18.5546875,202.1484375,131.34765625,30.76171875
790,28.3203125,55.6640625,-78.61328125,29.296875
791,37.59765625,77.1484375,-146.97265625,23.92578125
792,36.62109375,116.2109375,-45.8984375,28.80859375
793,38.0859375,79.1015625,-92.28515625,30.76171875
794,32.71484375,52.734375,-189.453125,30.2734375
795,31.73828125,81.0546875,-153.80859375,34.1796875
796,34.1796875,86.9140625,-102.5390625,36.1328125
797,32.71484375,51.7578125,-207.51953125,34.66796875
798,31.25,45.8984375,-244.140625,33.69140625
799,29.78515625,77.63671875,-229.00390625,36.1328125
800,46.38671875,144.53125,-112.79296875,40.0390625
801,50.78125,128.90625,-79.58984375,35.64453125
802,28.3203125,52.734375,-223.6328125,27.34375
803,16.6015625,51.26953125,-248.53515625,24.4140625
804,20.5078125,155.76171875,-68.84765625,24.4140625
805,29.296875,113.76953125,-146.97265625,23.92578125
806,28.80859375,99.609375,-238.28125,24.90234375
807,21.97265625,162.59765625,-154.296875,26.3671875
808,22.94921875,143.5546875,-137.20703125,20.99609375
809,24.4140625,122.55859375,-209.9609375,11.23046875
810,17.08984375,86.42578125,-338.37890625,5.859375
811,11.71875,150.87890625,-251.46484375,-0.48828125
812,25.87890625,246.58203125,-8.7890625,-4.39453125
813,31.73828125,153.80859375,-183.59375,5.37109375
814,22.94921875,162.59765625,-237.3046875,12.6953125
815,29.296875,196.2890625,-190.91796875,14.6484375
816,29.296875,217.28515625,-124.51171875,16.11328125
817,22.4609375,142.08984375,-193.84765625,5.859375
818,8.7890625,140.625,-286.1328125,-5.37109375
819,1.46484375,217.7734375,-115.72265625,-3.90625
820,5.37109375,132.32421875,-137.20703125,3.41796875
821,5.859375,56.640625,-290.0390625,9.765625
822,-2.9296875,88.37890625,-224.609375,4.8828125
823,1.46484375,125.0,-97.65625,6.34765625
824,11.71875,109.86328125,-125.9765625,6.34765625
825,6.34765625,14.16015625,-288.57421875,4.8828125
826,5.37109375,39.55078125,-325.68359375,11.71875
827,13.671875,167.48046875,-60.546875,14.16015625
828,15.13671875,79.1015625,-99.12109375,19.53125
829,10.7421875,-3.90625,-324.70703125,18.06640625
830,14.6484375,41.015625,-264.6484375,18.5546875
831,21.97265625,91.796875,-111.81640625,20.01953125
832,19.04296875,46.38671875,-190.4296875,12.6953125
833,17.578125,-48.828125,-392.578125,14.6484375
834,18.06640625,51.7578125,-267.08984375,16.11328125
835,10.25390625,153.80859375,6.34765625,12.20703125
836,7.8125,41.50390625,-154.296875,5.37109375
837,2.9296875,37.109375,-277.83203125,7.32421875
838,-3.41796875,123.046875,-127.9296875,7.32421875
839,0.9765625,95.703125,-42.96875,0.9765625
840,-1.46484375,17.578125,-173.828125,-1.953125
841,-5.859375,56.640625,-186.03515625,-2.44140625
842,-7.32421875,114.74609375,-37.109375,-6.34765625
843,-12.20703125,41.015625,-74.70703125,-8.30078125
844,-4.39453125,-16.6015625,-165.52734375,0.0
845,-8.30078125,-35.15625,-252.9296875,16.6015625
846,-18.5546875,80.56640625,-13.671875,12.6953125
847,-15.625,65.91796875,162.109375,0.48828125
848,-14.16015625,-69.3359375,-86.42578125,-3.41796875
849,-12.20703125,-55.17578125,-79.1015625,-20.99609375
850,-4.39453125,-11.71875,86.9140625,-27.34375
851,-0.9765625,-56.15234375,73.73046875,-24.90234375
852,7.8125,-112.3046875,-39.0625,-23.92578125
853,21.97265625,-79.1015625,29.78515625,-16.11328125
854,17.08984375,-60.546875,144.53125,-17.08984375
855,19.04296875,-100.09765625,111.81640625,-13.18359375
856,7.8125,-125.9765625,58.59375,-2.9296875
857,-12.20703125,-97.65625,64.453125,-2.9296875
858,-13.671875,-74.70703125,134.765625,-7.8125
859,-7.8125,-62.5,211.9140625,-9.765625
860,-0.9765625,-132.32421875,57.6171875,-10.7421875
861,-5.37109375,-53.22265625,114.2578125,-15.625
862,-3.41796875,75.1953125,437.98828125,-12.20703125
863,11.71875,-34.1796875,292.96875,-2.9296875
864,-5.37109375,5.37109375,241.2109375,-15.625
865,-6.34765625,75.1953125,371.58203125,-23.4375
866,12.6953125,40.0390625,373.046875,-2.9296875
867,-11.23046875,20.5078125,297.8515625,-6.8359375
868,-28.3203125,22.4609375,294.43359375,-29.296875
869,-17.578125,76.66015625,374.51171875,-20.01953125
870,-19.04296875,152.34375,497.55859375,-12.20703125
871,-18.06640625,102.05078125,458.0078125,-20.99609375
872,-16.6015625,100.09765625,339.84375,-19.04296875
875,5.37109375,146.97265625,464.84375,-16.11328125
894,-25.87890625,274.4140625,442.87109375,-29.78515625
895,-16.11328125,309.08203125,432.12890625,-22.4609375
898,-18.5546875,232.421875,364.2578125,-19.53125
899,-9.765625,263.671875,382.32421875,-12.6953125
901,-13.671875,282.71484375,428.22265625,-5.859375
902,-8.30078125,222.16796875,302.24609375,8.7890625
903,6.34765625,307.12890625,412.109375,11.23046875
905,34.66796875,278.3203125,431.15234375,13.18359375
906,32.71484375,228.02734375,316.89453125,17.08984375
907,23.92578125,273.4375,427.734375,11.71875
910,23.92578125,269.53125,448.2421875,20.99609375
913,45.8984375,206.0546875,458.984375,26.3671875
914,52.734375,208.984375,468.26171875,28.3203125
916,39.55078125,183.59375,475.09765625,32.2265625
917,37.109375,177.734375,477.5390625,32.2265625
918,49.8046875,123.046875,394.04296875,37.59765625
921,33.203125,102.05078125,462.890625,23.92578125
922,30.2734375,107.91015625,464.84375,25.390625
924,28.3203125,102.5390625,492.67578125,14.16015625
925,27.83203125,67.3828125,416.50390625,23.92578125
926,41.50390625,91.30859375,475.09765625,27.83203125
928,30.76171875,47.36328125,479.98046875,22.94921875
929,33.69140625,-55.6640625,295.8984375,30.2734375
930,42.96875,13.18359375,339.84375,43.45703125
934,54.6875,77.1484375,406.25,54.19921875
936,50.29296875,22.94921875,411.1328125,51.26953125
939,50.29296875,56.15234375,438.4765625,44.43359375
940,35.15625,4.39453125,351.07421875,25.390625
941,45.41015625,-20.5078125,291.015625,35.15625
942,47.36328125,53.22265625,417.48046875,35.64453125
943,48.33984375,71.2890625,478.515625,19.53125
944,45.41015625,-39.55078125,307.6171875,13.671875
945,37.109375,-49.8046875,209.47265625,30.2734375
946,31.25,108.3984375,475.09765625,30.2734375
947,15.625,32.71484375,484.375,15.13671875
948,12.20703125,-62.01171875,249.51171875,12.20703125
949,18.5546875,-20.99609375,288.0859375,9.27734375
950,24.90234375,-1.46484375,371.09375,15.13671875
951,14.16015625,-46.38671875,292.48046875,17.08984375
952,5.859375,-75.1953125,201.171875,7.8125
953,4.8828125,-78.125,178.22265625,11.71875
954,10.25390625,-37.109375,274.90234375,9.765625
955,11.71875,-45.41015625,311.5234375,-0.9765625
956,-0.48828125,-184.08203125,18.5546875,-4.8828125
957,-5.859375,-109.375,93.26171875,-4.8828125
958,-12.20703125,-29.296875,335.9375,-6.8359375
959,-14.6484375,-149.90234375,81.54296875,-8.7890625
960,-2.9296875,-106.4453125,28.80859375,-6.8359375
961,2.9296875,-29.78515625,179.19921875,-8.30078125
962,4.39453125,-94.7265625,143.5546875,-7.32421875
963,1.46484375,-155.2734375,-22.4609375,0.48828125
964,-2.44140625,-166.50390625,-71.77734375,-0.48828125
965,1.953125,-141.11328125,-41.50390625,-3.41796875
966,4.8828125,-95.21484375,5.37109375,-0.9765625
967,-4.39453125,-171.875,-76.66015625,-7.8125
968,-5.37109375,-188.4765625,-220.703125,-3.90625
969,-5.37109375,-61.5234375,11.23046875,0.0
970,-7.8125,-147.94921875,-6.34765625,-3.90625
971,-6.34765625,-229.98046875,-219.7265625,-3.90625
972,-15.625,-200.1953125,-199.70703125,-7.8125
973,-22.4609375,-196.77734375,-169.921875,-15.625
974,-19.53125,-238.76953125,-257.8125,-20.99609375
975,-19.04296875,-242.67578125,-283.203125,-23.92578125
976,-21.484375,-220.21484375,-232.421875,-21.97265625
977,-26.3671875,-237.79296875,-240.234375,-26.3671875
978,-34.66796875,-249.51171875,-253.90625,-32.2265625
979,-33.69140625,-334.47265625,-389.6484375,-20.99609375
980,-29.296875,-264.6484375,-343.75,-15.13671875
981,-21.97265625,-159.1796875,-33.69140625,-17.578125
982,-23.4375,-331.54296875,-240.72265625,-17.08984375
983,-23.92578125,-339.84375,-325.1953125,-15.625
984,-8.30078125,-312.01171875,-201.66015625,-12.20703125
985,9.27734375,-370.60546875,-229.98046875,-2.44140625
986,-17.08984375,-431.15234375,-337.40234375,-9.27734375
987,-53.22265625,-443.84765625,-343.75,-39.0625
988,-41.015625,-446.2890625,-296.875,-37.109375
989,-31.25,-497.55859375,-357.91015625,-27.83203125
990,-27.83203125,-520.5078125,-321.77734375,-27.83203125
991,-32.71484375,-612.3046875,-451.66015625,-20.01953125
992,-32.71484375,-545.8984375,-302.734375,-19.04296875
993,-23.4375,-547.8515625,-140.13671875,-27.34375
994,-19.53125,-685.546875,-396.484375,-31.25
995,-22.4609375,-669.43359375,-370.60546875,-29.296875
996,-19.53125,-645.99609375,-269.53125,-24.90234375
997,-17.578125,-689.94140625,-317.87109375,-22.94921875
998,-20.5078125,-723.6328125,-391.11328125,-14.6484375
999,-11.71875,-680.6640625,-333.49609375,-9.27734375
1000,-4.8828125,-701.66015625,-289.0625,-13.18359375
1001,-2.44140625,-737.79296875,-364.74609375,-4.8828125
1002,-5.37109375,-800.78125,-494.62890625,6.34765625
1003,-1.953125,-714.35546875,-413.57421875,6.34765625
1004,-1.46484375,-568.359375,-86.9140625,1.46484375
1005,-5.37109375,-712.40234375,-250.9765625,-7.32421875
1006,1.46484375,-706.0546875,-376.953125,-7.8125
1007,11.23046875,-632.32421875,-283.203125,-0.48828125
1008,-3.41796875,-654.296875,-283.69140625,-3.41796875
1009,-20.5078125,-694.3359375,-389.16015625,-8.7890625
1010,-16.11328125,-668.9453125,-393.5546875,-4.39453125
1011,-10.7421875,-616.2109375,-301.26953125,-7.8125
1012,-5.859375,-642.08984375,-329.58984375,-5.37109375
1013,-2.44140625,-705.078125,-422.36328125,0.0
1014,-7.8125,-668.9453125,-456.54296875,1.46484375
1015,-7.8125,-538.0859375,-205.56640625,0.9765625
1016,-4.8828125,-615.234375,-208.49609375,-13.18359375
1017,-11.71875,-716.30859375,-428.22265625,-15.13671875
1018,-10.7421875,-660.15625,-310.05859375,-16.6015625
1019,-14.16015625,-587.40234375,-137.6953125,-16.6015625
1020,-20.99609375,-648.4375,-206.54296875,-11.23046875
1021,-16.11328125,-698.2421875,-299.8046875,-10.25390625
1022,-17.08984375,-661.1328125,-221.6796875,-14.16015625
1023,-16.11328125,-639.16015625,-113.76953125,-14.6484375
1024,-4.8828125,-685.546875,-156.73828125,-6.8359375
1025,-3.90625,-792.96875,-340.8203125,-5.37109375
1026,1.46484375,-708.0078125,-195.80078125,-4.39453125
1027,7.8125,-609.86328125,86.42578125,-5.859375
1028,-5.37109375,-718.26171875,-49.8046875,-10.25390625
1029,-10.25390625,-702.1484375,-103.02734375,-11.71875
1030,-5.37109375,-641.6015625,5.859375,-7.32421875
1031,-1.46484375,-700.68359375,-47.36328125,-3.41796875
1032,10.7421875,-715.33203125,-74.70703125,-5.859375
1033,7.8125,-640.625,17.08984375,-1.46484375
1034,-0.9765625,-595.21484375,121.09375,1.46484375
1035,2.9296875,-644.53125,121.09375,-1.46484375
1036,-0.48828125,-699.21875,19.53125,-9.27734375
1037,-0.48828125,-707.03125,-10.7421875,-12.6953125
1038,7.8125,-625.9765625,151.3671875,-9.27734375
1039,8.7890625,-615.72265625,234.375,-5.37109375
1040,8.30078125,-709.9609375,78.125,0.9765625
1041,10.25390625,-676.26953125,87.890625,0.0
1042,9.27734375,-573.2421875,306.15234375,-7.8125
1043,-0.9765625,-653.80859375,264.16015625,-1.953125
1044,-0.9765625,-708.49609375,132.8125,1.46484375
1045,9.765625,-702.63671875,154.78515625,-2.9296875
1046,11.71875,-673.33984375,253.41796875,0.48828125
1047,11.23046875,-648.92578125,332.03125,-0.9765625
1048,7.8125,-768.5546875,187.98828125,-4.39453125
1049,12.6953125,-749.51171875,170.41015625,-2.9296875
1050,29.78515625,-628.90625,416.015625,18.06640625
1051,30.2734375,-659.1796875,431.640625,32.2265625
1052,30.2734375,-796.875,166.9921875,27.83203125
1053,20.5078125,-729.98046875,250.48828125,11.23046875
1055,7.8125,-757.8125,363.28125,-0.48828125
1056,8.7890625,-755.37109375,342.7734375,4.8828125
1057,15.625,-728.02734375,446.2890625,3.90625
1058,27.34375,-775.87890625,459.47265625,15.13671875
1059,24.90234375,-845.703125,373.046875,21.484375
1061,41.9921875,-857.91015625,426.7578125,31.25
1065,43.9453125,-840.8203125,496.58203125,43.45703125
1070,66.89453125,-847.16796875,492.1875,47.8515625
1090,65.4296875,-358.88671875,250.9765625,55.17578125
1092,55.6640625,-198.2421875,420.41015625,44.43359375
1093,44.921875,-223.14453125,331.54296875,36.62109375
1094,45.8984375,-231.93359375,217.7734375,36.1328125
1095,45.41015625,-144.53125,296.38671875,35.15625
1096,37.59765625,-131.34765625,320.80078125,23.92578125
1097,35.64453125,-153.3203125,209.47265625,14.16015625
1098,37.59765625,-167.48046875,88.37890625,17.578125
1099,34.66796875,-61.03515625,205.078125,19.04296875
1100,24.90234375,57.6171875,406.25,14.16015625
1101,24.4140625,-27.34375,226.5625,13.18359375
1102,28.3203125,16.11328125,179.19921875,17.578125
1103,19.53125,53.22265625,198.2421875,14.16015625
1104,8.7890625,62.5,208.984375,2.9296875
1105,3.41796875,50.29296875,165.0390625,2.44140625
1106,-0.9765625,72.265625,102.05078125,8.30078125
1107,6.8359375,151.3671875,229.4921875,4.8828125
1108,13.671875,80.078125,163.57421875,2.44140625
1109,0.0,22.4609375,32.71484375,0.48828125
1110,-8.30078125,81.54296875,50.29296875,-6.8359375
1111,-4.39453125,186.5234375,235.3515625,-10.7421875
1112,-2.44140625,115.234375,223.6328125,-13.671875
1113,-23.4375,31.73828125,47.36328125,-16.6015625
1114,-31.73828125,44.43359375,68.84765625,-15.625
1115,-24.4140625,80.078125,145.99609375,-13.18359375
1116,-19.53125,53.22265625,110.3515625,-19.04296875
1117,-16.6015625,-20.99609375,-12.20703125,-24.90234375
1118,-29.296875,-11.23046875,-34.66796875,-25.87890625
1119,-32.71484375,55.6640625,118.1640625,-29.296875
1120,-32.71484375,-4.39453125,94.7265625,-39.55078125
1121,-23.92578125,-162.59765625,-173.828125,-41.015625
1122,-13.671875,-61.03515625,-113.76953125,-33.203125
1123,-11.23046875,115.234375,262.6953125,-31.73828125
1124,-15.625,-55.6640625,106.93359375,-37.59765625
1125,-32.2265625,-91.30859375,-50.29296875,-39.0625
1126,-24.4140625,-38.0859375,54.6875,-32.71484375
1127,-19.04296875,-80.078125,50.78125,-24.90234375
1128,-16.11328125,-132.8125,-28.80859375,-26.85546875
1129,-26.85546875,-111.81640625,-37.109375,-36.1328125
1130,-33.69140625,-79.58984375,43.9453125,-30.2734375
1131,-14.16015625,-128.90625,28.80859375,-19.04296875
1132,-9.765625,-180.6640625,-62.5,-13.671875
1133,-6.34765625,-180.6640625,-116.69921875,-11.23046875
1134,-5.859375,-103.515625,-12.6953125,-21.484375
1135,-11.23046875,-83.49609375,89.84375,-17.578125
1136,-2.44140625,-195.3125,-53.7109375,-9.765625
1137,4.39453125,-191.40625,-165.52734375,-6.8359375
1138,-1.953125,-44.43359375,60.546875,1.46484375
1139,-3.90625,-109.375,64.453125,-2.9296875
1140,14.6484375,-176.7578125,-115.72265625,3.41796875
1141,21.97265625,-132.32421875,-84.9609375,8.7890625
1142,14.6484375,-88.8671875,16.11328125,3.41796875
1143,19.04296875,-111.328125,-16.6015625,5.37109375
1144,9.27734375,-159.66796875,-128.90625,15.625
1145,16.11328125,-123.53515625,-116.69921875,30.2734375
1146,27.83203125,-76.171875,-11.71875,27.83203125
1147,17.578125,-79.58984375,-27.34375,22.94921875
1148,15.625,-159.1796875,-194.3359375,29.296875
1149,26.85546875,-56.15234375,-94.7265625,34.1796875
1150,38.0859375,87.890625,193.84765625,24.4140625
1151,33.203125,-64.94140625,-14.16015625,15.625
1152,20.5078125,-42.48046875,-67.87109375,17.578125
1153,19.53125,14.6484375,43.9453125,15.625
1154,28.3203125,-17.08984375,10.25390625,23.92578125
1155,32.2265625,-39.55078125,-77.1484375,29.296875
1156,27.83203125,-29.78515625,-102.05078125,23.92578125
1157,27.34375,-1.46484375,-69.82421875,27.34375
1158,39.55078125,51.7578125,1.46484375,26.3671875
1159,33.203125,12.6953125,-24.4140625,20.01953125
1160,29.296875,11.23046875,-134.27734375,29.296875
1161,43.45703125,151.3671875,21.484375,38.57421875
1162,41.015625,143.06640625,75.1953125,36.1328125
1163,34.66796875,35.15625,-99.609375,28.3203125
1164,36.62109375,46.38671875,-127.9296875,23.92578125
1165,39.0625,168.45703125,50.29296875,20.5078125
1166,37.109375,119.140625,-19.04296875,16.6015625
1167,24.90234375,110.3515625,-95.21484375,25.87890625
1168,24.4140625,128.90625,-76.171875,24.90234375
1169,34.1796875,112.79296875,-108.88671875,20.01953125
1170,20.99609375,172.8515625,-21.97265625,10.7421875
1171,13.18359375,67.87109375,-157.71484375,7.32421875
1172,12.6953125,112.79296875,-176.26953125,15.625
1173,9.765625,249.51171875,94.7265625,7.32421875
1174,10.25390625,136.23046875,-48.33984375,5.37109375
1175,7.8125,120.1171875,-173.33984375,5.859375
1176,-1.46484375,197.265625,-61.03515625,0.0
1177,7.8125,202.63671875,0.9765625,6.34765625
1178,11.23046875,122.0703125,-123.53515625,1.953125
1179,-7.8125,167.96875,-129.39453125,-2.44140625
1180,5.37109375,236.81640625,-11.23046875,2.9296875
1181,13.18359375,187.5,-51.7578125,-6.34765625
1182,2.9296875,173.33984375,-81.54296875,-10.7421875
1183,-2.44140625,199.21875,-97.65625,-2.44140625
1184,2.9296875,304.6875,58.10546875,-6.8359375
1185,0.0,257.32421875,86.9140625,-6.8359375
1186,-8.30078125,164.0625,-108.88671875,-6.34765625
1187,-8.30078125,198.73046875,-91.30859375,-13.18359375
1188,2.44140625,261.23046875,40.0390625,-6.8359375
1189,14.6484375,229.98046875,-15.13671875,-11.23046875
1190,7.32421875,145.99609375,-173.33984375,-13.18359375
1191,-4.8828125,218.26171875,-78.125,-16.11328125
1192,-8.7890625,285.15625,77.63671875,-19.53125
1193,5.859375,212.40234375,-26.85546875,-24.4140625
1194,-0.48828125,160.15625,-153.3203125,-21.97265625
1195,-19.04296875,229.00390625,-39.55078125,-14.6484375
1196,-10.25390625,327.63671875,197.75390625,-20.99609375
1197,-18.5546875,215.33203125,37.59765625,-26.3671875
1198,-32.71484375,219.7265625,-27.83203125,-20.01953125
1199,-28.80859375,282.71484375,68.359375,-14.16015625
1200,-32.71484375,257.8125,91.796875,-22.94921875
1201,-40.0390625,208.0078125,19.53125,-30.76171875
1202,-33.69140625,235.83984375,22.94921875,-26.85546875
1203,-34.1796875,281.25,113.28125,-22.4609375
1204,-47.8515625,233.88671875,60.546875,-23.4375
1205,-34.1796875,210.44921875,35.64453125,-26.3671875
1206,-21.97265625,262.20703125,143.06640625,-16.11328125
1207,-30.76171875,311.03515625,268.5546875,-16.11328125
1208,-28.80859375,279.78515625,265.625,-23.92578125
1209,-19.04296875,214.35546875,198.73046875,-27.83203125
1210,-28.3203125,163.57421875,43.45703125,-23.92578125
1211,-35.64453125,340.8203125,308.10546875,-22.94921875
1212,-27.34375,329.58984375,437.98828125,-35.15625
1213,-32.2265625,225.5859375,224.12109375,-33.203125
1214,-33.69140625,275.390625,272.94921875,-31.73828125
1215,-28.80859375,302.734375,358.88671875,-26.3671875
1216,-34.66796875,256.34765625,301.26953125,-22.94921875
1217,-42.96875,141.11328125,93.75,-37.109375
1218,-48.33984375,194.82421875,147.4609375,-41.9921875
1219,-43.9453125,315.4296875,373.53515625,-41.9921875
1220,-25.87890625,268.5546875,320.3125,-42.48046875
1221,-34.66796875,168.9453125,83.0078125,-39.0625
1222,-46.38671875,263.671875,168.45703125,-35.15625
1223,-30.2734375,279.78515625,304.19921875,-38.57421875
1224,-41.015625,160.64453125,139.6484375,-43.9453125
1225,-34.66796875,186.5234375,130.37109375,-29.296875
1226,-26.85546875,236.81640625,182.6171875,-27.34375
1227,-36.62109375,230.95703125,169.43359375,-40.0390625
1228,-38.0859375,176.7578125,78.125,-40.52734375
1229,-37.59765625,160.64453125,-13.18359375,-38.57421875
1230,-40.52734375,262.6953125,114.2578125,-41.9921875
1231,-31.73828125,282.71484375,156.25,-35.15625
1232,-29.78515625,191.89453125,-36.62109375,-27.83203125
1233,-39.0625,216.796875,-95.21484375,-27.34375
1234,-28.80859375,336.9140625,101.07421875,-29.296875
1235,-41.50390625,313.96484375,108.3984375,-30.2734375
1236,-40.52734375,207.03125,-137.6953125,-21.97265625
1237,-32.2265625,231.93359375,-172.8515625,-21.484375
1238,-29.296875,340.33203125,15.13671875,-23.4375
1239,-19.53125,304.19921875,-36.62109375,-25.390625
1240,-12.20703125,224.12109375,-246.09375,-28.80859375
1241,-2.44140625,262.6953125,-259.27734375,-20.01953125
1242,0.0,349.12109375,-97.16796875,-6.34765625
1243,-7.8125,326.66015625,-92.28515625,-14.16015625
1244,-15.625,192.3828125,-361.328125,-31.73828125
1245,-8.7890625,260.7421875,-319.3359375,-29.296875
1246,-3.41796875,364.2578125,-64.94140625,-18.5546875
1247,-10.25390625,234.86328125,-259.27734375,-18.5546875
1248,-10.7421875,264.6484375,-289.55078125,-16.11328125
1249,-1.953125,319.3359375,-165.52734375,-8.7890625
1250,0.0,271.484375,-190.91796875,-12.6953125
1251,-1.46484375,229.00390625,-262.20703125,-15.625
1252,2.44140625,215.33203125,-273.4375,-10.25390625
1253,6.34765625,230.95703125,-245.1171875,-3.90625
1254,3.90625,266.11328125,-156.25,0.9765625
1255,-3.41796875,191.40625,-213.8671875,0.48828125
1256,-3.90625,163.0859375,-347.65625,10.25390625
1257,-1.953125,297.36328125,-116.69921875,10.7421875
1258,-4.8828125,229.98046875,-88.8671875,3.90625
1259,0.9765625,150.390625,-255.37109375,8.30078125
1260,1.953125,176.26953125,-215.8203125,4.8828125
1261,-0.48828125,199.70703125,-134.765625,1.953125
1262,7.32421875,157.71484375,-211.42578125,11.23046875
1263,20.5078125,109.375,-300.78125,14.16015625
1264,19.04296875,135.25390625,-228.02734375,23.4375
1265,7.32421875,179.19921875,-139.16015625,25.390625
1266,11.71875,196.2890625,-96.6796875,15.13671875
1267,13.671875,78.61328125,-278.3203125,16.6015625
1268,4.8828125,107.421875,-255.37109375,19.04296875
1269,8.30078125,227.05078125,18.06640625,12.6953125
1270,14.6484375,118.1640625,-130.37109375,10.25390625
1271,11.71875,135.7421875,-183.10546875,7.32421875
1272,9.27734375,176.7578125,-105.46875,10.7421875
1273,20.5078125,146.484375,-87.40234375,20.5078125
1274,22.4609375,108.3984375,-169.921875,18.5546875
1275,17.08984375,115.72265625,-196.77734375,24.4140625
1276,16.6015625,125.48828125,-157.2265625,25.87890625
1277,15.625,119.62890625,-180.17578125,17.08984375
1278,7.32421875,138.18359375,-153.80859375,12.6953125
1279,-5.37109375,56.640625,-317.3828125,15.13671875
1280,6.8359375,175.29296875,-159.1796875,12.6953125
1281,20.01953125,246.58203125,77.1484375,2.9296875
1282,5.859375,75.1953125,-205.56640625,2.44140625
1283,-16.6015625,90.33203125,-237.79296875,-0.48828125
1284,-5.859375,180.6640625,-74.21875,-3.41796875
1285,0.0,129.39453125,-166.015625,0.48828125
1286,-13.18359375,97.16796875,-269.04296875,-7.32421875
1287,-22.4609375,152.34375,-197.75390625,-18.06640625
1288,-26.3671875,137.20703125,-185.546875,-19.04296875
1289,-32.71484375,118.65234375,-264.6484375,-31.73828125
1290,-26.3671875,79.58984375,-363.76953125,-31.25
1291,-30.2734375,137.6953125,-293.45703125,-21.484375
1292,-38.57421875,287.59765625,-3.90625,-30.76171875
1293,-18.06640625,188.96484375,-107.91015625,-30.2734375
1294,-9.765625,169.921875,-255.859375,-26.3671875
1295,-21.97265625,266.11328125,-105.95703125,-25.390625
1296,-29.296875,235.83984375,-38.0859375,-24.90234375
1297,-16.6015625,175.29296875,-174.31640625,-24.4140625
1298,-4.8828125,221.6796875,-135.7421875,-28.3203125
1299,2.9296875,270.01953125,-10.25390625,-30.76171875
1300,18.5546875,225.5859375,-55.6640625,-21.484375
1301,21.97265625,187.5,-125.9765625,-23.92578125
1302,9.765625,221.6796875,-158.69140625,-21.97265625
1303,5.859375,332.51953125,56.640625,-14.16015625
1304,9.27734375,300.29296875,133.30078125,-13.671875
1305,7.32421875,209.9609375,-88.37890625,-1.46484375
1306,-4.39453125,245.1171875,-79.58984375,2.9296875
1307,-12.6953125,321.77734375,67.87109375,-1.46484375
1308,-12.20703125,305.6640625,46.38671875,-8.30078125
1309,-25.390625,236.81640625,-113.28125,-11.71875
1310,-27.83203125,263.671875,-109.375,-8.7890625
1311,-22.4609375,330.56640625,30.2734375,-8.30078125
1312,-25.390625,284.1796875,-30.76171875,-19.04296875
1313,-20.01953125,187.98828125,-244.140625,-24.4140625
1314,-26.3671875,263.18359375,-172.36328125,-26.85546875
1315,-33.69140625,360.3515625,83.984375,-22.4609375
1316,-23.4375,262.6953125,-31.25,-17.08984375
1317,-18.06640625,250.48828125,-161.1328125,-13.671875
1318,-25.87890625,314.453125,-66.89453125,-12.20703125
1319,-29.296875,262.6953125,-73.2421875,-20.01953125
1320,-29.296875,212.40234375,-184.5703125,-19.04296875
1321,-34.66796875,280.2734375,-156.73828125,-16.11328125
1322,-28.3203125,333.0078125,-29.296875,-12.20703125
1323,-21.97265625,284.66796875,-41.9921875,-22.94921875
1324,-18.5546875,228.02734375,-196.2890625,-20.5078125
1325,-10.25390625,220.21484375,-260.7421875,-2.44140625
1326,-20.01953125,295.41015625,-144.53125,-14.16015625
1327,-43.9453125,311.03515625,-77.1484375,-35.64453125
1328,-41.50390625,232.91015625,-261.71875,-41.015625
1329,-26.3671875,279.78515625,-288.57421875,-31.73828125
1330,-23.92578125,379.8828125,-103.515625,-24.4140625
1331,-33.203125,326.171875,-166.015625,-38.57421875
1332,-34.1796875,273.92578125,-327.63671875,-53.7109375
1333,-36.1328125,311.5234375,-288.57421875,-54.19921875
1334,-35.64453125,329.1015625,-253.41796875,-49.8046875
1335,-36.62109375,315.4296875,-328.125,-52.24609375
1336,-47.36328125,287.109375,-372.0703125,-52.24609375
1337,-36.62109375,301.26953125,-366.2109375,-47.36328125
1338,-36.1328125,392.08984375,-186.5234375,-42.96875
1339,-45.41015625,363.28125,-161.1328125,-38.0859375
1340,-45.41015625,228.515625,-455.56640625,-39.55078125
1341,-48.33984375,305.17578125,-398.4375,-40.52734375
1342,-44.921875,414.0625,-95.703125,-33.203125
1343,-24.90234375,308.59375,-257.8125,-15.625
1344,-9.765625,324.21875,-317.87109375,1.953125
1345,-34.1796875,366.69921875,-217.28515625,-27.83203125
1346,-51.26953125,333.49609375,-225.5859375,-54.6875
1347,-59.08203125,281.25,-346.6796875,-45.8984375
1348,-64.94140625,253.41796875,-397.4609375,-47.8515625
1349,-57.12890625,291.015625,-328.125,-36.62109375
1350,-47.36328125,314.94140625,-267.08984375,-32.2265625
1351,-33.203125,288.57421875,-247.55859375,-42.48046875
1352,-34.1796875,214.84375,-432.6171875,-42.96875
1353,-43.45703125,330.56640625,-213.8671875,-39.0625
1354,-30.2734375,363.28125,9.27734375,-34.1796875
1355,-19.53125,248.046875,-265.625,-29.296875
1356,-30.76171875,273.4375,-273.92578125,-34.66796875
1357,-38.57421875,302.24609375,-183.10546875,-36.62109375
1358,-36.62109375,273.92578125,-201.66015625,-33.203125
1359,-28.80859375,206.54296875,-336.9140625,-27.83203125
1360,-17.08984375,218.26171875,-320.80078125,-21.97265625
1361,-11.23046875,237.79296875,-234.375,-20.99609375
1362,0.48828125,263.671875,-165.0390625,-20.99609375
1363,0.9765625,143.06640625,-329.1015625,-7.32421875
1364,-6.34765625,185.546875,-365.234375,7.32421875
1365,3.90625,336.9140625,44.921875,5.859375
1366,5.37109375,168.9453125,-95.703125,-0.9765625
1367,5.37109375,154.296875,-226.5625,1.46484375
1368,10.7421875,188.4765625,-123.53515625,8.7890625
1369,16.11328125,137.6953125,-138.18359375,6.34765625
1370,17.08984375,76.66015625,-233.3984375,-3.90625
1371,17.578125,88.37890625,-209.47265625,0.48828125
1372,25.390625,100.09765625,-126.953125,13.18359375
1373,14.6484375,32.2265625,-220.21484375,7.32421875
1374,11.71875,18.06640625,-234.86328125,7.8125
1375,21.484375,42.96875,-213.8671875,23.92578125
1376,20.01953125,119.62890625,-39.0625,17.08984375
1377,18.06640625,32.2265625,-56.640625,15.625
1378,16.11328125,-55.17578125,-280.76171875,20.01953125
1379,18.5546875,3.90625,-181.640625,17.578125
1380,19.04296875,73.73046875,-12.6953125,23.4375
1381,13.18359375,14.6484375,-104.4921875,20.5078125
1382,13.671875,-21.97265625,-227.05078125,22.94921875
1383,20.01953125,28.80859375,-150.390625,26.3671875
1384,25.390625,19.04296875,-100.09765625,21.97265625
1385,11.23046875,3.41796875,-162.59765625,18.06640625
1386,3.90625,-56.640625,-318.84765625,22.94921875
1387,7.32421875,-4.8828125,-233.88671875,25.390625
1388,13.671875,124.51171875,56.15234375,20.99609375
1389,9.27734375,26.3671875,-86.9140625,15.625
1390,0.48828125,29.78515625,-158.203125,13.18359375
1391,6.8359375,37.59765625,-135.7421875,19.04296875
1392,11.71875,4.39453125,-159.66796875,8.30078125
1393,16.6015625,-0.9765625,-136.23046875,0.9765625
1394,8.30078125,-31.25,-219.7265625,0.9765625
1395,5.859375,26.3671875,-112.3046875,-1.46484375
1396,10.25390625,-36.1328125,-91.796875,-4.8828125
1397,-0.48828125,-123.53515625,-257.32421875,-9.765625
1398,0.48828125,-101.07421875,-286.1328125,-4.8828125
1399,-6.34765625,-20.5078125,-48.828125,-16.11328125
1400,-17.578125,-111.81640625,-7.8125,-23.92578125
1401,-10.7421875,-237.3046875,-216.30859375,-20.01953125
1402,-16.6015625,-242.1875,-200.1953125,-22.94921875
1403,-16.11328125,-232.91015625,-96.6796875,-29.78515625
1404,-13.671875,-299.8046875,-140.625,-28.80859375
1405,-29.296875,-367.67578125,-246.58203125,-21.97265625
1406,-34.66796875,-386.23046875,-265.625,-30.2734375
1407,-34.66796875,-363.28125,-144.53125,-45.41015625
1408,-30.76171875,-415.52734375,-135.7421875,-46.38671875
1409,-30.76171875,-585.9375,-436.03515625,-40.0390625
1410,-31.73828125,-500.0,-368.1640625,-35.64453125
1411,-32.2265625,-367.67578125,6.8359375,-44.43359375
1412,-38.57421875,-541.015625,-133.7890625,-52.734375
1413,-44.43359375,-625.0,-375.9765625,-52.734375
1414,-48.828125,-552.24609375,-250.48828125,-55.17578125
1415,-52.734375,-570.80078125,-150.87890625,-50.78125
1416,-39.0625,-645.01953125,-284.66796875,-41.50390625
1417,-39.55078125,-613.28125,-251.953125,-34.66796875
1418,-43.9453125,-581.0546875,-160.64453125,-34.66796875
1419,-35.64453125,-613.28125,-177.734375,-26.3671875
1420,-35.64453125,-656.73828125,-264.16015625,-19.04296875
1421,-39.0625,-659.66796875,-280.2734375,-24.4140625
1422,-31.73828125,-615.234375,-182.6171875,-24.4140625
1423,-30.76171875,-584.47265625,-73.2421875,-27.34375
1424,-41.015625,-648.4375,-133.7890625,-41.015625
1425,-48.828125,-693.84765625,-301.7578125,-44.921875
1426,-46.875,-517.578125,25.87890625,-31.25
1427,-41.9921875,-524.90234375,189.94140625,-25.87890625
1428,-40.52734375,-660.15625,-81.0546875,-30.2734375
1429,-29.78515625,-625.0,-70.80078125,-33.69140625
1430,-26.85546875,-500.9765625,177.734375,-30.2734375
1431,-23.4375,-519.04296875,184.08203125,-23.4375
1432,-21.97265625,-559.08203125,72.265625,-19.53125
1433,-29.78515625,-520.99609375,90.33203125,-26.3671875
1434,-25.87890625,-430.17578125,294.43359375,-31.25
1435,-13.18359375,-458.984375,298.828125,-29.78515625
1436,-10.7421875,-461.42578125,203.125,-24.4140625
1437,-9.27734375,-358.3984375,376.46484375,-24.4140625
1438,-17.578125,-376.46484375,455.56640625,-22.94921875
1439,-33.203125,-395.01953125,412.109375,-19.04296875
1440,-25.390625,-476.5625,222.65625,-16.11328125
1441,-17.578125,-353.02734375,377.44140625,-10.7421875
1444,-7.8125,-307.12890625,482.91015625,-3.90625
1448,-8.7890625,-150.390625,407.71484375,-7.32421875
1452,-1.46484375,1.46484375,489.2578125,-1.953125
1482,30.76171875,-480.95703125,444.82421875,30.76171875
1489,50.78125,-486.81640625,471.19140625,48.828125
1490,45.8984375,-484.86328125,418.9453125,46.875
1492,31.73828125,-507.8125,425.78125,40.52734375
1493,31.73828125,-547.36328125,317.87109375,31.73828125
1494,26.85546875,-570.80078125,187.5,38.0859375
1495,27.34375,-442.87109375,389.16015625,39.55078125
1497,32.71484375,-510.7421875,263.671875,26.3671875
1498,44.921875,-474.609375,277.83203125,31.73828125
1499,42.48046875,-410.15625,349.609375,39.55078125
1500,41.015625,-420.41015625,281.25,40.0390625
1501,42.96875,-448.2421875,157.71484375,40.0390625
1502,44.921875,-399.90234375,162.109375,32.71484375
1503,40.0390625,-333.984375,254.8828125,26.3671875
1504,20.99609375,-361.81640625,168.9453125,34.1796875
1505,31.73828125,-460.9375,-76.171875,40.52734375
1506,40.52734375,-361.328125,8.30078125,38.57421875
1507,38.57421875,-249.51171875,197.75390625,38.0859375
1508,45.8984375,-297.36328125,113.28125,32.2265625
1509,35.15625,-360.3515625,-62.5,34.1796875
1510,33.203125,-285.64453125,-22.94921875,39.0625
1511,42.48046875,-205.078125,125.48828125,33.69140625
1512,30.2734375,-296.38671875,-52.734375,33.203125
1513,25.87890625,-248.046875,-93.75,36.1328125
1514,26.3671875,-178.7109375,-4.39453125,38.57421875
1515,24.90234375,-209.9609375,-13.671875,35.15625
1516,31.25,-251.953125,-133.7890625,36.1328125
1517,35.15625,-252.44140625,-208.0078125,34.1796875
1518,39.0625,-160.64453125,-88.37890625,35.15625
1521,51.26953125,-197.265625,-251.46484375,44.43359375
1522,29.296875,-81.54296875,-64.94140625,33.203125
1523,23.4375,-73.2421875,-12.20703125,24.90234375
1524,34.66796875,-181.640625,-229.00390625,22.94921875
1525,44.921875,-151.85546875,-246.58203125,29.296875
1526,60.05859375,-13.18359375,-51.26953125,33.203125
1527,53.22265625,-49.8046875,-121.09375,35.64453125
1528,35.64453125,-97.65625,-269.53125,37.109375
1529,43.9453125,-49.31640625,-267.08984375,45.8984375
1559,45.41015625,324.70703125,-322.265625,53.7109375
1560,40.0390625,375.48828125,-247.0703125,45.41015625
1561,44.921875,342.7734375,-248.046875,48.828125
1562,35.64453125,292.96875,-350.5859375,52.734375
1563,41.50390625,317.87109375,-334.9609375,47.8515625
1564,41.50390625,321.2890625,-295.41015625,42.48046875
1565,29.78515625,273.92578125,-397.4609375,35.15625
1566,31.25,293.9453125,-350.09765625,35.15625
1567,36.62109375,235.3515625,-482.91015625,41.9921875
1568,36.62109375,335.9375,-331.0546875,38.0859375
1569,41.9921875,376.46484375,-138.18359375,29.78515625
1570,44.43359375,242.1875,-413.0859375,27.83203125
1571,37.59765625,267.08984375,-427.734375,24.4140625
1572,28.80859375,332.51953125,-293.45703125,22.94921875
1573,41.50390625,301.7578125,-343.26171875,30.76171875
1574,62.01171875,254.8828125,-480.95703125,43.45703125
1575,52.24609375,320.80078125,-389.16015625,40.0390625
1576,31.25,320.3125,-306.640625,30.2734375
1577,34.1796875,263.18359375,-412.59765625,40.52734375
1579,45.41015625,244.140625,-471.6796875,32.71484375
1580,23.92578125,372.0703125,-213.8671875,20.99609375
1581,19.53125,292.48046875,-278.3203125,26.85546875
1582,34.1796875,208.49609375,-492.67578125,29.296875
1583,32.71484375,291.50390625,-383.7890625,19.04296875
1584,18.5546875,283.203125,-277.83203125,15.625
1585,24.4140625,190.91796875,-420.41015625,19.04296875
1586,28.3203125,197.75390625,-421.875,24.4140625
1587,16.11328125,229.98046875,-306.640625,24.4140625
1588,16.11328125,144.04296875,-373.046875,15.625
1589,18.5546875,79.1015625,-482.91015625,12.6953125
1590,6.34765625,131.34765625,-369.140625,19.53125
1591,4.39453125,146.97265625,-266.11328125,21.484375
1592,12.20703125,100.09765625,-303.22265625,16.6015625
1593,17.578125,13.18359375,-387.20703125,12.6953125
1595,4.39453125,84.47265625,-282.71484375,7.32421875
1596,10.25390625,75.68359375,-109.375,1.953125
1597,10.25390625,-68.84765625,-375.0,-2.44140625
1598,-3.90625,-38.0859375,-329.58984375,-8.30078125
1599,-15.13671875,-9.765625,-220.21484375,-2.9296875
1600,-13.18359375,-55.6640625,-266.6015625,-4.39453125
1601,-12.20703125,-162.59765625,-446.2890625,-2.9296875
1602,-10.7421875,-92.28515625,-348.6328125,0.48828125
1603,-8.7890625,26.85546875,-53.7109375,-2.9296875
1604,-13.671875,-75.1953125,-212.40234375,-0.48828125
1605,-6.34765625,-59.5703125,-284.66796875,2.9296875
1606,-12.20703125,8.30078125,-128.41796875,-7.8125
1607,-21.97265625,-11.71875,-107.421875,-13.18359375
1608,-19.04296875,-58.59375,-235.83984375,-21.97265625
1609,-21.97265625,-13.18359375,-256.34765625,-29.296875
1610,-22.94921875,85.44921875,-61.5234375,-23.92578125
1611,-17.08984375,48.828125,-24.4140625,-15.13671875
1612,-25.87890625,-4.8828125,-164.0625,-13.671875
1613,-36.62109375,14.16015625,-212.890625,-25.87890625
1614,-31.25,122.0703125,-36.1328125,-23.92578125
1615,-22.94921875,142.578125,45.8984375,-21.484375
1616,-22.94921875,62.98828125,-121.09375,-26.3671875
1617,-25.87890625,73.2421875,-137.20703125,-21.97265625
1618,-25.87890625,165.52734375,37.59765625,-23.92578125
1619,-22.94921875,166.9921875,47.36328125,-28.3203125
1620,-18.5546875,76.171875,-132.32421875,-32.71484375
1621,-25.390625,125.0,-106.93359375,-28.3203125
1622,-20.5078125,228.515625,120.1171875,-31.25
1623,-23.92578125,165.0390625,56.640625,-34.66796875
1624,-40.0390625,99.12109375,-75.68359375,-32.2265625
1625,-39.55078125,116.2109375,-71.2890625,-32.71484375
1626,-32.71484375,241.2109375,152.34375,-25.87890625
1627,-29.78515625,231.4453125,193.359375,-25.87890625
1628,-27.83203125,90.33203125,-79.1015625,-27.83203125
1629,-35.64453125,146.97265625,-34.1796875,-26.85546875
1630,-31.73828125,283.69140625,287.59765625,-35.15625
1631,-27.83203125,180.6640625,143.5546875,-35.64453125
1632,-27.83203125,193.84765625,85.44921875,-28.80859375
1633,-19.04296875,236.81640625,189.453125,-27.34375
1634,-28.80859375,197.265625,185.05859375,-26.85546875
1635,-32.71484375,166.9921875,113.76953125,-29.78515625
1636,-24.4140625,163.57421875,104.98046875,-24.4140625
1637,-26.85546875,180.6640625,162.109375,-18.5546875
1638,-22.4609375,181.15234375,174.8046875,-22.94921875
1639,-17.578125,176.26953125,191.40625,-28.3203125
1640,-18.06640625,128.41796875,70.3125,-19.04296875
1641,-19.53125,225.5859375,225.09765625,-9.27734375
1642,-16.6015625,262.20703125,386.23046875,-11.71875
1643,-10.25390625,129.39453125,144.53125,-10.7421875
1644,-11.71875,147.94921875,125.9765625,-8.7890625
1645,-9.765625,248.53515625,302.24609375,-5.37109375
1646,-9.765625,209.9609375,254.8828125,-11.71875
1647,-15.625,192.87109375,147.4609375,-15.625
1648,-9.27734375,216.796875,159.1796875,-2.9296875
1649,6.34765625,227.5390625,187.5,2.9296875
1650,12.20703125,291.015625,261.71875,1.46484375
1651,17.08984375,164.0625,84.9609375,3.90625
1652,7.8125,225.5859375,72.75390625,6.34765625
1653,10.25390625,420.8984375,461.42578125,2.44140625
1654,19.04296875,260.7421875,308.10546875,8.7890625
1655,14.16015625,247.0703125,152.34375,5.859375
1656,12.6953125,312.98828125,265.625,-2.44140625
1657,3.41796875,283.69140625,286.62109375,-4.8828125
1658,1.46484375,248.53515625,182.6171875,-5.859375
1659,9.27734375,298.828125,205.56640625,0.0
1660,4.39453125,294.921875,250.48828125,4.8828125
1661,1.953125,241.69921875,165.52734375,5.859375
1662,3.90625,253.90625,170.41015625,-0.48828125
1663,5.859375,248.046875,92.7734375,3.41796875
1664,8.7890625,347.16796875,243.65234375,13.671875
1665,14.16015625,311.03515625,302.24609375,16.6015625
1666,16.6015625,183.59375,59.08203125,13.18359375
1667,1.953125,207.03125,99.12109375,7.32421875
1668,2.9296875,250.0,211.9140625,0.9765625
1669,16.11328125,213.37890625,153.80859375,0.48828125
1670,14.16015625,104.98046875,-21.97265625,3.90625
1671,7.8125,118.65234375,13.18359375,4.39453125
1672,10.25390625,167.48046875,166.015625,10.25390625
1673,18.06640625,90.33203125,55.6640625,9.765625
1674,15.13671875,24.4140625,-63.4765625,11.23046875
1675,17.08984375,66.89453125,10.7421875,15.625
1676,22.4609375,163.0859375,237.3046875,8.30078125
1677,10.25390625,42.48046875,81.54296875,5.37109375
1678,1.46484375,29.78515625,-5.859375,0.9765625
1679,14.16015625,65.91796875,59.5703125,-2.44140625
1680,14.16015625,-2.9296875,6.34765625,3.90625
1681,4.39453125,-42.48046875,-47.36328125,10.7421875
1682,9.27734375,3.90625,-11.23046875,12.6953125
1683,8.30078125,47.36328125,112.79296875,2.44140625
1684,10.7421875,-41.50390625,36.1328125,-4.39453125
1685,8.7890625,-105.46875,-96.6796875,4.39453125
1686,10.7421875,-81.0546875,-125.9765625,11.23046875
1687,9.765625,15.13671875,41.9921875,3.41796875
1688,5.37109375,-21.484375,129.39453125,-5.859375
1689,10.25390625,-113.28125,-67.3828125,-4.39453125
1690,15.625,-90.8203125,-50.29296875,8.30078125
1691,29.296875,-53.22265625,45.41015625,23.4375
1692,36.62109375,-76.171875,11.23046875,29.78515625
1693,20.5078125,-119.140625,-90.8203125,13.18359375
1694,7.8125,-133.7890625,-119.62890625,0.0
1695,5.859375,-74.21875,-17.08984375,-6.34765625
1696,17.08984375,-42.48046875,68.359375,-2.9296875
1697,18.06640625,-208.49609375,-173.828125,5.859375
1698,17.578125,-135.7421875,-222.16796875,5.859375
1699,12.20703125,73.2421875,186.03515625,-9.765625
1700,14.16015625,-63.96484375,104.98046875,-19.04296875
1701,15.625,-101.5625,-82.03125,-1.953125
1702,-1.953125,-44.43359375,-21.97265625,-5.37109375
1703,-10.25390625,-66.40625,-29.78515625,-9.27734375
1704,11.23046875,-86.9140625,-92.28515625,2.9296875
1705,17.578125,-44.43359375,-57.6171875,5.859375
1706,14.16015625,-7.32421875,-8.7890625,7.8125
1707,29.296875,-31.73828125,-65.91796875,18.06640625
1708,29.78515625,-63.4765625,-125.9765625,20.99609375
1709,22.4609375,-67.3828125,-167.48046875,17.578125
1710,30.2734375,-8.7890625,-120.1171875,23.92578125
1711,28.3203125,41.015625,-25.87890625,23.92578125
1712,23.4375,-4.39453125,-82.03125,20.5078125
1713,35.15625,-44.921875,-277.34375,30.76171875
1714,47.8515625,110.3515625,-34.66796875,41.9921875
1715,46.38671875,90.33203125,74.70703125,39.55078125
1716,42.96875,-8.7890625,-164.0625,27.83203125
1717,43.45703125,23.4375,-164.55078125,22.4609375
1718,45.41015625,66.89453125,-61.03515625,26.85546875
1719,41.015625,55.6640625,-76.171875,24.4140625
1720,28.80859375,12.20703125,-191.40625,27.83203125
1721,27.83203125,36.62109375,-209.9609375,31.73828125
1722,40.52734375,115.72265625,-47.36328125,26.85546875
1723,50.78125,105.46875,-2.9296875,30.2734375
1724,41.015625,-28.80859375,-262.20703125,41.9921875
1725,37.109375,84.47265625,-220.21484375,48.828125
1726,44.43359375,252.9296875,160.15625,43.45703125
1727,56.640625,98.6328125,0.48828125,40.0390625
1728,66.40625,106.4453125,-127.9296875,43.45703125
1729,52.734375,173.828125,-8.30078125,50.78125
1730,47.8515625,136.23046875,-17.578125,50.78125
1731,47.36328125,104.00390625,-87.890625,41.9921875
1732,44.43359375,87.40234375,-138.671875,44.43359375
1733,55.6640625,111.81640625,-98.6328125,47.8515625
1734,47.8515625,176.26953125,20.99609375,46.38671875
1735,46.875,122.0703125,-35.64453125,44.921875
1736,53.7109375,106.4453125,-191.89453125,47.36328125
1737,47.8515625,253.41796875,30.76171875,51.7578125
1738,57.12890625,186.5234375,39.55078125,55.17578125
1742,60.05859375,217.7734375,-5.37109375,54.19921875
1753,55.17578125,224.609375,-66.40625,49.31640625
1754,54.6875,216.30859375,-63.96484375,39.55078125
1755,66.89453125,216.796875,-107.421875,39.0625
1757,67.87109375,196.77734375,-42.96875,48.828125
1758,62.5,182.12890625,-99.12109375,48.33984375
1760,65.91796875,300.78125,57.12890625,45.8984375
1761,55.6640625,257.32421875,130.859375,51.26953125
1762,58.59375,157.71484375,-77.1484375,49.31640625
1763,55.17578125,179.6875,-58.10546875,52.734375
1764,63.96484375,223.14453125,33.203125,50.29296875
1765,65.4296875,205.56640625,21.97265625,42.96875
1766,56.640625,147.4609375,-105.46875,48.33984375
1767,58.59375,195.80078125,-80.56640625,46.38671875
1768,55.17578125,230.95703125,37.109375,45.41015625
1769,65.4296875,201.66015625,-1.953125,37.109375
1770,65.91796875,131.8359375,-128.90625,34.66796875
1771,51.26953125,187.98828125,-107.91015625,37.59765625
1772,50.78125,368.65234375,233.88671875,36.62109375
1773,45.8984375,231.4453125,128.41796875,37.59765625
1774,41.50390625,206.54296875,-27.83203125,35.15625
1775,42.96875,259.765625,52.24609375,40.0390625
1776,46.38671875,249.51171875,97.65625,37.109375
1777,40.52734375,213.37890625,48.33984375,30.2734375
1778,40.0390625,224.12109375,26.85546875,25.390625
1779,46.38671875,276.85546875,131.34765625,27.34375
1780,32.71484375,219.7265625,102.5390625,17.578125
1781,33.69140625,177.734375,24.4140625,2.44140625
1782,42.48046875,149.90234375,-92.7734375,25.87890625
1783,30.76171875,261.23046875,119.140625,29.296875
1784,16.11328125,302.24609375,328.125,4.8828125
1785,20.99609375,168.9453125,61.5234375,9.765625
1786,32.2265625,188.4765625,60.05859375,15.625
1787,16.11328125,254.8828125,203.61328125,1.46484375
1788,9.765625,225.5859375,151.85546875,-6.8359375
1789,19.04296875,173.33984375,51.7578125,-0.48828125
1790,10.7421875,194.3359375,90.8203125,-5.37109375
1791,9.765625,248.046875,202.63671875,-9.27734375
1792,12.6953125,208.0078125,164.0625,-12.6953125
1793,6.34765625,115.72265625,-37.59765625,-7.8125
1794,-1.46484375,204.58984375,87.890625,-1.46484375
1795,1.953125,261.23046875,273.4375,-8.30078125
1796,-3.41796875,173.33984375,108.88671875,-19.53125
1797,-2.44140625,125.0,-28.3203125,-22.94921875
1798,1.953125,195.3125,117.67578125,-16.11328125
1799,-9.27734375,251.46484375,305.6640625,-19.04296875
1800,-3.90625,152.34375,122.55859375,-21.97265625
1801,0.48828125,187.98828125,112.3046875,-10.25390625
1802,-2.44140625,225.5859375,201.66015625,-5.859375
1803,1.46484375,202.63671875,203.61328125,-10.7421875
1804,8.30078125,158.69140625,104.98046875,-8.30078125
1805,15.13671875,162.59765625,49.31640625,-5.37109375
1806,22.4609375,254.39453125,209.9609375,-6.8359375
1807,24.4140625,250.48828125,256.34765625,-2.9296875
1808,30.2734375,171.875,111.81640625,-1.46484375
1809,36.62109375,186.5234375,110.3515625,6.34765625
1810,19.53125,244.62890625,173.33984375,9.27734375
1811,11.71875,255.859375,206.0546875,3.41796875
1812,23.4375,188.96484375,110.83984375,10.25390625
1813,24.90234375,194.3359375,77.1484375,10.25390625
1814,28.3203125,294.921875,254.8828125,14.6484375
1815,31.73828125,263.671875,212.40234375,14.16015625
1816,41.50390625,158.69140625,41.9921875,21.484375
1817,62.98828125,103.515625,-149.4140625,54.19921875
1818,67.3828125,327.63671875,228.02734375,51.7578125
1826,64.453125,216.30859375,300.29296875,55.17578125
1831,63.96484375,134.765625,242.67578125,43.9453125
1832,55.17578125,101.5625,77.63671875,49.31640625
1837,68.84765625,172.36328125,295.8984375,48.33984375
1842,56.640625,150.390625,309.08203125,45.41015625
1843,53.7109375,31.73828125,146.97265625,50.29296875
1844,44.43359375,48.33984375,136.71875,55.17578125
1845,46.875,171.38671875,437.98828125,41.015625
1846,47.8515625,27.83203125,261.71875,33.69140625
1847,32.71484375,4.39453125,150.87890625,34.66796875
1848,30.76171875,47.36328125,207.03125,38.0859375
1849,40.52734375,24.90234375,168.9453125,31.25
1850,40.52734375,-14.6484375,65.4296875,20.99609375
1851,34.1796875,19.53125,45.41015625,14.16015625
1852,30.76171875,38.0859375,37.59765625,13.671875
1853,33.203125,-0.9765625,-53.7109375,11.71875
1854,35.15625,23.92578125,-17.08984375,13.18359375
1855,28.80859375,-53.22265625,-187.98828125,19.53125
1856,21.484375,42.96875,-41.50390625,26.85546875
1857,30.76171875,98.14453125,193.359375,24.4140625
1858,40.52734375,-38.0859375,-58.10546875,15.13671875
1859,29.296875,-20.99609375,-83.49609375,12.20703125
1860,25.87890625,28.80859375,33.69140625,14.6484375
1861,26.85546875,9.765625,6.34765625,12.6953125
1862,22.94921875,-39.0625,-117.67578125,12.6953125
1863,23.4375,12.20703125,-51.26953125,17.08984375
1864,25.390625,27.34375,12.20703125,19.04296875
1865,17.578125,-6.34765625,-69.82421875,18.06640625
1866,17.578125,-49.8046875,-140.625,23.92578125
1867,26.3671875,-23.92578125,-84.47265625,30.76171875
1868,24.4140625,103.515625,133.30078125,32.71484375
1869,21.484375,43.45703125,88.8671875,29.296875
1870,28.3203125,-35.15625,-101.5625,33.203125
1871,54.6875,45.41015625,-16.6015625,42.96875
1872,48.828125,54.6875,113.28125,23.92578125
1873,34.1796875,-22.4609375,-20.99609375,8.7890625
1874,30.76171875,9.765625,-37.109375,10.25390625
1875,22.4609375,57.6171875,86.9140625,11.71875
1876,22.94921875,-10.7421875,23.92578125,12.20703125
1877,26.85546875,-60.05859375,-78.61328125,5.37109375
1878,18.5546875,-37.59765625,-123.53515625,7.8125
1879,20.99609375,67.3828125,77.1484375,16.6015625
1880,24.90234375,36.1328125,185.546875,10.25390625
1881,22.4609375,-75.1953125,-29.78515625,6.8359375
1882,34.1796875,-95.703125,-92.7734375,11.71875
1883,37.109375,-32.2265625,33.69140625,14.16015625
1884,27.83203125,-11.23046875,115.234375,13.671875
1885,31.73828125,-124.0234375,-73.2421875,17.08984375
1886,32.71484375,-100.09765625,-98.6328125,17.08984375
1887,36.1328125,20.5078125,93.26171875,24.4140625
1888,44.921875,-33.203125,22.4609375,31.73828125
1889,45.41015625,-134.765625,-201.171875,33.203125
1890,36.1328125,-60.05859375,-115.234375,32.2265625
1891,35.15625,41.9921875,112.79296875,28.80859375
1892,43.9453125,-62.98828125,-23.4375,30.2734375
1893,49.31640625,-103.02734375,-148.92578125,31.73828125
1894,51.7578125,-51.26953125,-52.734375,38.0859375
1895,49.8046875,-102.5390625,-39.0625,25.390625
1896,53.22265625,-171.875,-120.60546875,14.6484375
1897,57.12890625,-149.90234375,-107.91015625,21.97265625
1898,50.78125,-102.5390625,-11.23046875,26.85546875
1899,53.22265625,-146.484375,29.78515625,21.97265625
1900,53.7109375,-215.33203125,-69.3359375,26.3671875
1901,45.8984375,-271.97265625,-267.578125,38.57421875
1902,37.59765625,-133.30078125,-40.52734375,35.64453125
1903,49.8046875,-109.375,167.96875,33.203125
1904,59.5703125,-235.83984375,-54.6875,28.80859375
1905,44.921875,-223.14453125,-80.56640625,25.390625
1906,43.9453125,-144.04296875,62.98828125,27.83203125
1907,43.9453125,-146.97265625,64.453125,26.85546875
1908,40.0390625,-216.796875,-73.73046875,28.80859375
1909,49.8046875,-194.3359375,-56.640625,28.3203125
1910,46.875,-77.1484375,142.08984375,28.80859375
1911,43.9453125,-108.3984375,65.4296875,27.83203125
1912,50.29296875,-190.4296875,-83.0078125,22.94921875
1913,44.921875,-152.34375,-28.80859375,29.78515625
1914,36.62109375,-12.20703125,237.79296875,27.34375
1915,39.0625,-52.734375,258.30078125,20.99609375
1916,46.875,-210.44921875,-43.45703125,24.4140625
1917,44.43359375,-154.78515625,22.4609375,17.08984375
1918,36.62109375,-52.24609375,303.22265625,12.6953125
1919,38.0859375,-165.0390625,147.94921875,10.7421875
1920,41.9921875,-182.6171875,73.2421875,19.04296875
1921,43.9453125,-159.1796875,196.77734375,25.87890625
1922,51.26953125,-210.9375,237.79296875,22.94921875
1923,64.94140625,-278.80859375,157.71484375,25.87890625
1924,56.640625,-304.19921875,96.6796875,23.4375
1925,36.62109375,-269.04296875,136.71875,17.08984375
1926,43.45703125,-248.53515625,169.921875,15.625
1927,46.38671875,-241.2109375,187.98828125,13.671875
1928,40.0390625,-311.5234375,13.671875,18.06640625
1929,36.62109375,-193.84765625,182.6171875,17.08984375
1930,43.9453125,-122.0703125,418.45703125,10.7421875
1931,49.8046875,-261.23046875,153.3203125,15.13671875
1932,52.24609375,-232.421875,130.37109375,22.94921875
1933,48.828125,-166.9921875,248.046875,20.5078125
1934,48.828125,-198.73046875,195.80078125,23.92578125
1935,57.6171875,-219.7265625,113.76953125,28.80859375
1936,45.8984375,-197.265625,113.76953125,22.4609375
1937,35.15625,-173.828125,121.09375,16.6015625
1938,39.55078125,-98.6328125,168.9453125,8.7890625
1939,47.8515625,-148.92578125,88.8671875,16.11328125
1940,41.015625,-112.3046875,91.796875,19.04296875
1941,37.59765625,43.45703125,361.81640625,7.32421875
1942,42.48046875,-82.51953125,248.53515625,16.11328125
1943,35.15625,-157.71484375,23.4375,21.484375
1944,62.01171875,-52.734375,154.296875,42.96875
1946,37.109375,-142.578125,107.91015625,18.06640625
1947,-1.46484375,-101.07421875,104.4921875,-8.30078125
1948,-0.48828125,-64.453125,155.2734375,-7.8125
1949,-5.859375,-75.68359375,66.40625,-10.7421875
1950,-22.4609375,-48.33984375,54.6875,-24.4140625
1951,-39.0625,-26.85546875,-24.90234375,-37.59765625
1952,-41.50390625,113.76953125,137.6953125,-37.59765625
1953,-30.2734375,110.83984375,200.1953125,-30.2734375
1954,-54.6875,38.57421875,-19.04296875,-44.921875
1955,-70.3125,100.09765625,10.7421875,-60.546875
1956,-47.8515625,182.6171875,124.0234375,-50.78125
1957,-42.48046875,188.4765625,98.6328125,-39.55078125
1958,-36.1328125,136.71875,-27.83203125,-26.3671875
1959,-14.6484375,190.4296875,7.8125,-20.01953125
1960,-0.9765625,260.25390625,121.58203125,-6.34765625
1961,3.41796875,244.62890625,68.84765625,3.41796875
1962,13.18359375,201.66015625,-46.875,13.671875
1963,20.99609375,275.87890625,15.13671875,33.69140625
1964,27.34375,426.26953125,301.26953125,30.76171875
1965,40.0390625,336.9140625,179.19921875,33.69140625
1966,44.43359375,337.890625,83.0078125,33.203125
1967,43.9453125,392.08984375,149.4140625,33.69140625
1968,43.45703125,355.95703125,147.94921875,41.015625
1969,41.50390625,302.734375,72.75390625,48.828125
1971,43.45703125,411.62109375,208.0078125,45.41015625
1972,50.29296875,328.125,175.29296875,37.59765625
1973,42.96875,287.59765625,41.015625,34.1796875
1974,59.08203125,383.30078125,160.15625,37.109375
1976,64.94140625,386.71875,208.0078125,34.66796875
1977,62.5,318.84765625,83.984375,34.1796875
1978,68.359375,338.8671875,-11.71875,42.96875
1980,65.91796875,417.48046875,279.78515625,43.45703125
1981,52.734375,329.58984375,58.59375,40.52734375
1982,45.8984375,354.98046875,54.19921875,38.0859375
1983,34.66796875,385.7421875,143.5546875,51.26953125
1984,39.55078125,366.2109375,120.60546875,43.9453125
1985,45.41015625,273.4375,-21.484375,32.71484375
1986,33.203125,343.75,-52.24609375,49.31640625
1987,30.76171875,550.29296875,314.453125,53.22265625
1988,34.1796875,427.24609375,230.95703125,36.1328125
1989,29.78515625,401.3671875,31.25,18.06640625
1990,22.4609375,475.09765625,101.07421875,15.13671875
1991,23.92578125,463.8671875,103.02734375,12.20703125
1992,33.69140625,422.36328125,-2.44140625,6.8359375
1993,39.55078125,450.68359375,-52.24609375,20.01953125
1994,21.97265625,520.01953125,56.640625,7.32421875
1995,8.30078125,494.62890625,73.2421875,-12.6953125
1996,14.16015625,447.265625,-54.6875,-2.44140625
1997,12.6953125,469.7265625,-125.9765625,3.41796875
1998,12.20703125,536.1328125,-30.2734375,-5.859375
1999,12.6953125,557.6171875,50.78125,-10.25390625
2000,15.13671875,527.34375,8.30078125,0.0
2001,18.5546875,467.28515625,-237.79296875,11.23046875
2002,11.23046875,631.34765625,-8.30078125,1.46484375
2003,9.765625,643.5546875,175.29296875,-11.23046875
2004,9.765625,536.62109375,-72.265625,-2.9296875
2005,7.8125,561.03515625,-65.91796875,1.46484375
2006,16.11328125,587.40234375,-12.6953125,-0.9765625
2007,9.765625,565.91796875,-28.3203125,0.48828125
2008,5.37109375,491.69921875,-126.46484375,-1.953125
2009,9.27734375,481.4453125,-206.0546875,-1.46484375
2010,7.32421875,549.31640625,-54.19921875,-3.41796875
2011,4.8828125,533.203125,16.11328125,-8.7890625
2012,10.25390625,354.00390625,-270.5078125,-3.90625
2013,10.7421875,414.0625,-271.97265625,-0.9765625
2014,25.390625,581.54296875,164.55078125,-2.44140625
2015,29.296875,403.80859375,27.83203125,-5.37109375
2016,11.23046875,368.65234375,-115.234375,-8.30078125
2017,16.11328125,407.2265625,3.90625,-7.8125
2018,17.578125,338.8671875,-7.32421875,0.9765625
2019,11.71875,275.87890625,-100.09765625,0.0
2020,14.6484375,243.1640625,-117.1875,-7.32421875
2021,11.23046875,236.81640625,-71.77734375,-4.39453125
2022,6.8359375,257.8125,26.3671875,-10.25390625
2023,12.6953125,165.0390625,-2.9296875,-10.25390625
2024,10.25390625,99.609375,-184.08203125,1.953125
2025,16.11328125,194.3359375,32.71484375,7.8125
2026,27.34375,94.23828125,95.703125,11.71875
2027,19.53125,-26.3671875,-125.9765625,2.44140625
2028,20.5078125,-3.90625,-77.1484375,-0.48828125
2029,23.92578125,34.66796875,106.93359375,5.859375
2030,19.04296875,-55.6640625,8.30078125,5.37109375
2031,17.578125,-124.0234375,-164.55078125,0.0
2032,19.53125,-141.6015625,-127.44140625,-2.44140625
2033,18.5546875,-181.640625,-128.90625,1.953125
2034,18.06640625,-166.015625,-66.40625,1.953125
2035,8.7890625,-308.10546875,-226.07421875,-10.25390625
2036,5.37109375,-320.3125,-289.0625,-10.25390625
2037,7.8125,-208.49609375,41.015625,-5.37109375
2038,13.18359375,-360.83984375,-92.7734375,3.41796875
2039,17.08984375,-410.15625,-238.76953125,16.6015625
2040,11.23046875,-427.24609375,-206.0546875,11.23046875
2041,15.625,-491.2109375,-237.3046875,11.71875
2042,21.484375,-548.33984375,-270.01953125,9.765625
2043,10.25390625,-579.58984375,-308.59375,0.48828125
2044,7.32421875,-596.6796875,-288.57421875,-8.7890625
2045,22.4609375,-674.8046875,-323.73046875,-6.8359375
2046,22.94921875,-691.40625,-330.56640625,0.9765625
2047,6.34765625,-727.05078125,-424.31640625,3.90625
2048,8.30078125,-657.71484375,-266.6015625,7.8125
2049,28.3203125,-711.9140625,-170.41015625,11.71875
2050,20.01953125,-839.84375,-404.78515625,17.578125
2051,13.18359375,-841.796875,-417.96875,19.04296875
2052,20.01953125,-802.734375,-304.6875,18.5546875
2053,17.578125,-845.703125,-334.47265625,14.16015625
2060,10.7421875,-749.0234375,-206.54296875,26.85546875
2061,11.23046875,-866.2109375,-287.109375,26.3671875
2063,10.7421875,-834.47265625,-383.30078125,20.99609375
2064,8.7890625,-833.984375,-351.07421875,15.13671875
2066,6.34765625,-861.328125,-476.5625,2.44140625
2067,4.39453125,-789.55078125,-329.1015625,-3.90625
2068,1.46484375,-859.375,-348.6328125,-0.9765625
2071,15.625,-806.15234375,-358.88671875,12.6953125
2072,14.16015625,-748.53515625,-134.27734375,9.765625
2073,-1.953125,-861.328125,-375.0,-1.46484375
2074,-2.44140625,-821.77734375,-381.8359375,-11.71875
2075,-1.953125,-746.09375,-249.0234375,-8.7890625
2076,-0.48828125,-750.0,-271.484375,-1.953125
2077,7.8125,-783.69140625,-387.20703125,-1.953125
2078,11.23046875,-743.1640625,-363.28125,-0.9765625
2079,7.32421875,-661.62109375,-208.984375,3.41796875
2080,5.859375,-662.59765625,-204.58984375,3.41796875
2081,4.39453125,-765.13671875,-375.0,5.37109375
2082,-0.48828125,-690.4296875,-310.546875,-3.41796875
2083,10.7421875,-533.69140625,-32.2265625,-13.671875
2084,12.20703125,-598.14453125,-119.62890625,-5.859375
2085,5.859375,-669.43359375,-316.89453125,3.90625
2086,16.6015625,-557.6171875,-162.59765625,3.41796875
2087,13.671875,-452.1484375,75.1953125,-3.41796875
2088,4.8828125,-529.78515625,-52.734375,-2.9296875
2089,5.37109375,-487.3046875,-47.36328125,1.46484375
2090,-3.90625,-424.8046875,36.1328125,0.0
2091,-0.48828125,-409.1796875,74.21875,-1.953125
2092,0.0,-433.10546875,53.22265625,-14.6484375
2093,0.48828125,-406.25,17.08984375,-20.5078125
2094,0.9765625,-282.2265625,170.41015625,-12.6953125
2095,-1.953125,-246.58203125,254.8828125,-12.6953125
2096,3.90625,-319.3359375,108.3984375,-19.53125
2097,-10.25390625,-252.9296875,111.81640625,-22.4609375
2098,-20.01953125,-159.1796875,320.80078125,-21.484375
2099,-1.953125,-202.1484375,329.58984375,-22.4609375
2100,-5.859375,-235.83984375,260.25390625,-17.578125
2101,-16.11328125,-244.140625,301.26953125,-15.13671875
2102,-10.7421875,-161.62109375,472.65625,-14.6484375
2103,-7.32421875,-203.125,447.265625,-15.13671875
2104,-10.25390625,-267.08984375,378.41796875,-18.5546875
2105,-18.5546875,-274.4140625,400.390625,-15.625
2108,-8.30078125,-349.609375,468.75,-9.765625
2201,14.6484375,-205.078125,498.53515625,5.37109375
2204,12.6953125,-153.80859375,443.359375,4.8828125
2205,25.87890625,-33.69140625,488.28125,3.41796875
2208,56.640625,-99.609375,279.78515625,17.08984375
2209,51.26953125,49.8046875,365.72265625,20.5078125
2211,52.734375,132.8125,395.01953125,33.69140625
2215,50.78125,326.171875,378.41796875,50.78125
2216,43.9453125,247.0703125,214.84375,44.921875
2217,49.31640625,392.08984375,344.7265625,47.36328125
2219,38.0859375,350.09765625,292.96875,24.90234375
2220,34.66796875,380.859375,295.8984375,17.578125
2221,32.71484375,443.359375,383.7890625,6.34765625
2222,32.2265625,407.2265625,350.09765625,2.44140625
2223,31.73828125,355.46875,273.92578125,12.20703125
2224,27.83203125,354.00390625,285.15625,13.18359375
2225,28.80859375,372.0703125,308.59375,5.37109375
2226,26.85546875,441.89453125,377.44140625,1.46484375
2227,21.97265625,319.82421875,266.6015625,2.44140625
2228,23.92578125,308.10546875,211.9140625,16.11328125
2229,24.4140625,529.296875,487.79296875,2.9296875
2230,14.16015625,427.24609375,427.24609375,-1.46484375
2231,22.4609375,299.8046875,235.83984375,19.04296875
2232,17.578125,403.3203125,358.88671875,10.7421875
2233,5.859375,426.26953125,458.984375,-4.39453125
2234,16.11328125,314.453125,331.0546875,-1.46484375
2235,20.5078125,341.796875,328.61328125,-0.48828125
2236,6.8359375,362.79296875,355.95703125,-7.32421875
2237,4.39453125,283.69140625,276.3671875,-7.32421875
2238,8.7890625,304.6875,310.05859375,-4.39453125
2239,5.859375,285.15625,278.80859375,-3.90625
2240,9.765625,382.32421875,392.08984375,-8.30078125
2241,1.46484375,372.55859375,450.1953125,-20.5078125
2242,-5.37109375,215.33203125,259.765625,-23.4375
2243,-10.7421875,239.74609375,263.18359375,-22.4609375
2244,-11.71875,317.3828125,362.79296875,-21.484375
2245,-19.53125,276.85546875,336.42578125,-23.4375
2246,-20.5078125,158.203125,193.359375,-13.671875
2247,-3.41796875,199.21875,213.37890625,-4.39453125
2248,-1.953125,285.64453125,327.63671875,-6.34765625
2249,-1.953125,220.703125,246.58203125,-5.859375
2250,9.27734375,165.0390625,158.69140625,-0.48828125
2251,-4.39453125,239.2578125,231.93359375,-14.16015625
2252,-37.59765625,406.25,395.99609375,-48.33984375
2253,-45.41015625,313.4765625,290.52734375,-57.12890625
2254,-33.203125,293.9453125,231.93359375,-45.41015625
2255,-44.43359375,359.375,280.76171875,-50.29296875
2256,-45.8984375,337.890625,274.4140625,-50.29296875
2257,-36.1328125,248.53515625,184.08203125,-46.875
2258,-52.24609375,244.62890625,140.13671875,-62.98828125
2259,-55.6640625,359.375,280.76171875,-63.4765625
2260,-45.41015625,283.69140625,297.8515625,-58.10546875
2261,-44.43359375,167.48046875,176.26953125,-63.4765625
2262,-45.8984375,139.6484375,112.3046875,-57.6171875
2263,-37.59765625,260.7421875,262.6953125,-38.57421875
2264,-34.1796875,267.578125,328.61328125,-41.015625
2265,-46.875,123.046875,164.55078125,-59.08203125
2266,-23.92578125,143.5546875,173.33984375,-42.96875
2267,-16.6015625,212.890625,239.74609375,-31.73828125
2268,-51.7578125,202.63671875,230.46875,-57.12890625
2269,-62.01171875,121.58203125,130.859375,-68.359375
2270,-54.6875,164.0625,162.109375,-49.31640625
2271,-58.59375,206.54296875,224.12109375,-46.875
2272,-59.5703125,161.1328125,168.9453125,-66.89453125
2273,-68.359375,66.40625,82.03125,-82.03125
2274,-86.9140625,87.40234375,48.33984375,-86.42578125
2275,-83.49609375,346.19140625,321.77734375,-93.26171875
2281,-88.37890625,68.84765625,42.48046875,-91.30859375
2282,-80.078125,171.38671875,146.484375,-84.9609375
2283,-80.56640625,131.34765625,143.5546875,-85.44921875
2284,-74.21875,34.1796875,73.73046875,-83.49609375
2285,-80.56640625,18.06640625,60.05859375,-82.03125
2286,-84.9609375,65.91796875,108.3984375,-91.796875
2287,-76.66015625,108.88671875,205.56640625,-82.03125
2288,-62.98828125,51.26953125,193.84765625,-63.4765625
2289,-57.6171875,-90.33203125,22.4609375,-71.77734375
2290,-67.87109375,83.49609375,186.03515625,-80.078125
2291,-63.4765625,97.16796875,291.50390625,-62.01171875
2292,-61.03515625,-97.16796875,93.75,-52.734375
2293,-56.640625,-79.1015625,98.6328125,-63.4765625
2294,-45.41015625,-6.8359375,200.68359375,-44.43359375
2295,-38.0859375,-52.734375,143.06640625,-33.69140625
2296,-36.1328125,-147.94921875,59.08203125,-45.8984375
2297,-29.296875,-159.1796875,70.3125,-35.15625
2298,-27.34375,-47.8515625,222.65625,-29.296875
2299,-29.78515625,-50.78125,257.8125,-34.1796875
2300,-36.1328125,-297.8515625,21.484375,-42.48046875
2301,-39.55078125,-208.49609375,81.0546875,-45.8984375
2302,-40.0390625,90.8203125,406.25,-37.109375
2303,-51.26953125,-111.328125,291.9921875,-37.59765625
2304,-44.43359375,-164.0625,209.47265625,-34.66796875
2305,-32.71484375,-77.1484375,299.8046875,-25.87890625
2306,-40.52734375,-91.30859375,306.640625,-26.85546875
2307,-40.0390625,-103.515625,276.3671875,-21.484375
2308,-34.1796875,-93.75,260.25390625,-24.4140625
2309,-33.203125,-39.55078125,285.15625,-35.64453125
2310,-30.2734375,56.15234375,349.12109375,-34.1796875
2311,-27.83203125,6.8359375,281.73828125,-29.78515625
2312,-33.69140625,-59.08203125,134.27734375,-25.87890625
2313,-31.73828125,146.484375,286.1328125,-34.1796875
2314,-29.296875,104.00390625,309.5703125,-45.8984375
2315,-26.3671875,-64.94140625,120.60546875,-46.38671875
2316,-23.92578125,10.25390625,161.62109375,-43.9453125
2317,-33.69140625,126.953125,288.57421875,-43.45703125
2318,-29.296875,37.59765625,220.703125,-41.50390625
2319,-21.97265625,-50.29296875,116.69921875,-34.1796875
2320,-29.296875,-43.45703125,120.1171875,-29.78515625
2321,-23.92578125,-53.7109375,118.65234375,-30.76171875
2322,-17.578125,13.671875,189.94140625,-32.2265625
2323,-24.4140625,-145.01953125,74.70703125,-30.2734375
2324,-33.203125,-125.48828125,72.75390625,-22.4609375
2325,-25.87890625,101.5625,321.77734375,-24.4140625
2326,-20.5078125,-80.56640625,207.51953125,-29.78515625
2327,-20.5078125,-121.09375,165.0390625,-33.203125
2328,-25.390625,-43.45703125,270.01953125,-24.90234375
2329,-27.83203125,-111.81640625,242.1875,-24.4140625
2330,-22.94921875,-145.99609375,207.03125,-23.92578125
2331,-20.99609375,-41.015625,261.23046875,-17.08984375
2332,-20.5078125,10.7421875,304.6875,-19.04296875
2333,-18.5546875,-72.75390625,250.9765625,-15.13671875
2334,-11.71875,-44.43359375,258.30078125,-13.18359375
2335,-10.25390625,-56.640625,228.515625,-15.13671875
2336,-15.625,71.77734375,345.21484375,-12.6953125
2337,-15.625,82.03125,399.4140625,-6.34765625
2338,-6.8359375,-79.1015625,217.28515625,-4.39453125
2339,-5.859375,-58.59375,235.3515625,-5.37109375
2340,-5.37109375,-20.5078125,320.3125,-0.9765625
2341,12.20703125,-83.0078125,291.015625,3.41796875
2342,7.8125,-156.73828125,208.984375,-3.41796875
2343,-1.46484375,-133.7890625,195.3125,-13.671875
2344,2.9296875,-86.42578125,243.65234375,-3.41796875
2345,-4.39453125,-59.5703125,256.34765625,-2.9296875
2346,9.765625,-188.4765625,145.5078125,9.27734375
2347,27.83203125,-195.80078125,92.28515625,37.109375
2348,10.7421875,92.28515625,335.9375,5.859375
2349,-1.46484375,-64.453125,264.16015625,-29.78515625
2350,-0.48828125,-185.05859375,106.4453125,-36.1328125
2351,1.46484375,-101.07421875,134.765625,-35.64453125
2352,-1.46484375,-122.0703125,113.76953125,-26.85546875
2353,-1.46484375,-180.6640625,51.26953125,-22.4609375
2354,-3.90625,-144.04296875,29.296875,-22.4609375
2355,-7.8125,-51.7578125,78.125,-34.66796875
2356,-0.9765625,-109.86328125,28.80859375,-26.85546875
2357,-1.953125,-186.5234375,-67.87109375,-22.94921875
2358,-5.859375,-98.14453125,-22.4609375,-34.1796875
2359,-12.20703125,-4.39453125,72.75390625,-25.87890625
2360,-13.18359375,-26.85546875,77.63671875,-22.4609375
2361,-8.7890625,-105.46875,11.23046875,-29.78515625
2362,-9.765625,-291.015625,-160.64453125,-31.73828125
2363,-14.6484375,-105.46875,15.13671875,-29.296875
2364,-3.41796875,-8.30078125,171.875,-22.94921875
2365,-11.23046875,-233.88671875,-25.390625,-30.76171875
2366,-16.11328125,-224.609375,-8.7890625,-40.52734375
2367,-6.34765625,-156.73828125,56.640625,-39.55078125
2368,-15.625,-209.9609375,8.7890625,-40.0390625
2369,-22.94921875,-360.83984375,-117.1875,-38.57421875
2370,-25.390625,-242.1875,-24.90234375,-35.15625
2371,-25.390625,-104.98046875,115.234375,-39.0625
2372,-31.25,-182.6171875,42.96875,-46.875
2373,-37.109375,-372.0703125,-126.46484375,-47.8515625
2374,-34.1796875,-228.02734375,-37.109375,-47.36328125
2375,-41.015625,75.1953125,275.390625,-60.05859375
2376,-34.1796875,-132.8125,140.13671875,-57.6171875
2377,-24.4140625,-172.36328125,40.0390625,-46.38671875
2378,-37.109375,-12.6953125,177.24609375,-47.36328125
2379,-37.109375,-24.90234375,201.171875,-52.734375
2380,-37.109375,-106.4453125,92.28515625,-62.5
2381,-42.96875,-86.9140625,39.0625,-55.6640625
2382,-41.9921875,46.38671875,128.41796875,-52.24609375
2383,-38.57421875,80.078125,163.0859375,-50.29296875
2384,-36.1328125,-20.01953125,42.48046875,-44.921875
2385,-36.62109375,22.94921875,18.06640625,-45.41015625
2386,-39.55078125,195.3125,168.9453125,-50.78125
2387,-38.57421875,110.3515625,125.9765625,-51.7578125
2388,-33.203125,19.53125,28.3203125,-46.38671875
2389,-42.48046875,104.00390625,98.6328125,-55.6640625
2390,-39.55078125,208.0078125,209.9609375,-56.15234375
2391,-41.50390625,135.25390625,152.83203125,-43.45703125
2392,-45.41015625,47.36328125,83.49609375,-47.8515625
2393,-40.52734375,46.38671875,87.40234375,-57.12890625
2394,-34.1796875,162.59765625,209.9609375,-52.734375
2395,-37.59765625,169.43359375,255.859375,-50.29296875
2396,-37.59765625,-58.59375,56.640625,-47.36328125
2397,-24.90234375,16.6015625,113.28125,-33.69140625
2398,-26.3671875,216.796875,335.9375,-30.76171875
2399,-25.87890625,41.50390625,216.30859375,-33.203125
2400,-21.484375,-0.9765625,176.26953125,-33.69140625
2401,-25.390625,-11.71875,194.3359375,-33.69140625
2402,-20.99609375,-1.953125,224.12109375,-38.57421875
2403,-23.92578125,-10.7421875,233.88671875,-38.57421875
2404,-29.296875,-85.44921875,150.87890625,-32.2265625
2405,-25.87890625,-10.7421875,209.9609375,-28.80859375
2406,-28.80859375,12.20703125,289.55078125,-31.73828125
2407,-20.99609375,-104.4921875,243.65234375,-30.2734375
2408,-18.5546875,-201.171875,122.55859375,-26.3671875
2409,-27.83203125,-20.99609375,274.4140625,-24.4140625
2410,-24.90234375,-36.62109375,310.05859375,-21.484375
2411,-28.3203125,-170.41015625,140.13671875,-20.99609375
2412,-27.83203125,-114.2578125,167.96875,-37.59765625
2413,-22.4609375,-53.22265625,228.515625,-42.48046875
2414,-27.83203125,-70.80078125,187.98828125,-33.203125
2415,-25.87890625,-129.39453125,126.46484375,-34.1796875
2416,-23.92578125,-161.1328125,106.4453125,-42.48046875
2417,-20.01953125,-116.2109375,157.71484375,-35.15625
2418,-11.71875,-86.42578125,204.58984375,-19.53125
2419,-12.6953125,-221.6796875,97.16796875,-24.90234375
2420,-20.5078125,-201.66015625,71.77734375,-30.2734375
2421,-24.90234375,70.80078125,340.8203125,-35.15625
2422,-23.4375,-95.703125,257.8125,-44.921875
2423,-16.6015625,-169.43359375,145.5078125,-38.57421875
2424,-32.2265625,-88.8671875,192.87109375,-44.43359375
2425,-42.48046875,-96.19140625,211.9140625,-50.78125
2426,-35.15625,-165.0390625,152.83203125,-42.48046875
2427,-29.78515625,-124.0234375,155.2734375,-38.57421875
2428,-30.2734375,-73.73046875,230.95703125,-39.0625
2429,-41.9921875,-154.296875,148.92578125,-35.15625
2430,-35.64453125,-86.42578125,176.26953125,-33.203125
2431,-34.66796875,-172.36328125,92.28515625,-28.3203125
2432,-36.62109375,-53.7109375,192.87109375,-22.4609375
2433,-36.62109375,97.16796875,383.30078125,-32.71484375
2434,-34.1796875,-107.91015625,163.57421875,-39.55078125
2435,-47.8515625,-78.61328125,147.4609375,-48.828125
2436,-44.921875,47.8515625,267.578125,-58.59375
2437,-31.25,6.8359375,213.37890625,-51.7578125
2438,-27.83203125,-63.96484375,131.8359375,-41.9921875
2439,-19.53125,-4.8828125,159.66796875,-48.33984375
2440,0.48828125,44.921875,189.94140625,-43.9453125
2441,12.20703125,27.83203125,147.94921875,-31.25
2442,-4.8828125,-25.390625,74.70703125,-36.62109375
2443,-11.23046875,68.359375,133.7890625,-35.64453125
2444,-17.08984375,247.0703125,294.921875,-33.203125
2445,-21.484375,116.69921875,167.48046875,-32.71484375
2446,-27.83203125,64.94140625,52.24609375,-23.92578125
2447,-28.80859375,168.9453125,131.8359375,-19.04296875
2448,-26.3671875,231.93359375,218.75,-23.92578125
2449,-31.73828125,153.3203125,105.95703125,-36.62109375
2450,-29.296875,192.3828125,101.5625,-37.109375
2451,-32.2265625,273.92578125,172.8515625,-34.1796875
2452,-23.92578125,216.30859375,105.46875,-33.69140625
2453,-20.01953125,190.4296875,53.7109375,-38.0859375
2454,-15.625,192.87109375,-2.9296875,-24.90234375
2455,-12.20703125,333.0078125,113.28125,-19.04296875
2456,-8.7890625,379.39453125,199.21875,-21.97265625
2457,1.953125,250.9765625,36.1328125,-8.30078125
2458,12.20703125,290.52734375,32.2265625,7.32421875
2459,13.18359375,332.03125,57.6171875,16.6015625
2460,14.16015625,355.46875,53.7109375,11.23046875
2461,25.390625,315.4296875,-8.7890625,22.94921875
2462,47.8515625,313.96484375,-21.484375,40.52734375
2463,59.5703125,450.68359375,93.75,41.015625
2482,64.453125,545.41015625,-72.75390625,44.43359375
2483,37.109375,505.859375,-120.60546875,15.625
2484,-11.71875,435.546875,-214.35546875,-22.4609375
2485,-34.66796875,448.2421875,-209.47265625,-46.875
2486,-66.40625,494.62890625,-170.8984375,-72.265625
2533,-88.8671875,598.14453125,-18.06640625,-72.265625
2534,-69.82421875,468.26171875,-144.53125,-53.22265625
2535,-62.01171875,487.79296875,-121.58203125,-31.73828125
2536,-44.43359375,583.984375,6.34765625,-21.484375
2537,-31.73828125,518.06640625,-63.4765625,-10.25390625
2538,-33.203125,440.91796875,-147.4609375,-2.9296875
2539,-23.92578125,498.046875,-85.9375,-0.9765625
2540,-21.484375,654.296875,98.14453125,2.9296875
2541,-9.27734375,533.69140625,8.30078125,7.8125
2542,10.7421875,488.28125,-66.89453125,12.20703125
2543,19.53125,565.4296875,-4.8828125,20.5078125
2544,22.94921875,566.40625,14.16015625,30.76171875
2545,10.25390625,508.30078125,-41.015625,27.83203125
2546,0.9765625,531.25,-33.69140625,23.92578125
2547,6.8359375,618.1640625,78.61328125,24.90234375
2548,13.671875,532.71484375,33.69140625,26.85546875
2549,13.18359375,499.51171875,-10.25390625,23.4375
2550,11.23046875,478.515625,-52.734375,19.53125
2551,13.18359375,578.125,68.359375,20.5078125
2552,27.83203125,648.4375,200.68359375,19.53125
2553,36.1328125,501.46484375,56.15234375,20.01953125
2554,28.80859375,504.39453125,53.22265625,23.4375
2555,23.92578125,555.17578125,124.0234375,18.06640625
2556,23.92578125,534.66796875,127.9296875,23.4375
2557,27.83203125,471.19140625,60.05859375,21.97265625
2558,24.90234375,479.98046875,74.70703125,4.8828125
2559,10.7421875,508.30078125,141.6015625,0.9765625
2560,2.44140625,463.8671875,103.515625,-1.46484375
2561,1.46484375,335.44921875,-22.94921875,-12.6953125
2562,-12.6953125,376.953125,-25.87890625,-16.11328125
2563,-20.99609375,587.890625,238.76953125,-25.390625
2564,-22.94921875,410.15625,143.5546875,-43.9453125
2565,-41.015625,270.01953125,-62.98828125,-55.6640625
2566,-41.015625,345.21484375,21.484375,-60.05859375
2567,-36.62109375,350.5859375,90.8203125,-64.453125
2568,-33.69140625,243.65234375,12.20703125,-76.66015625
2569,-42.48046875,160.64453125,-92.7734375,-76.66015625
2570,-64.94140625,237.3046875,15.625,-76.66015625
2571,-57.6171875,215.33203125,88.8671875,-85.9375
2572,-50.78125,103.515625,-0.48828125,-87.40234375
2573,-65.91796875,78.61328125,-56.640625,-90.33203125
2584,-64.453125,-97.16796875,-85.44921875,-91.796875
2585,-44.921875,-93.26171875,-95.21484375,-67.3828125
2586,-46.38671875,20.01953125,23.92578125,-59.5703125
2587,-53.22265625,22.94921875,35.64453125,-60.546875
2588,-47.36328125,-87.890625,-125.9765625,-52.734375
2589,-39.55078125,-26.3671875,-102.5390625,-48.828125
2590,-25.87890625,59.5703125,26.3671875,-34.1796875
2591,-5.37109375,15.13671875,-4.39453125,-12.20703125
2592,4.39453125,-148.92578125,-236.328125,-5.37109375
2593,19.53125,-20.99609375,-164.55078125,4.39453125
2594,36.62109375,174.31640625,118.1640625,14.6484375
2595,40.52734375,-2.9296875,-74.70703125,20.01953125
2596,41.50390625,-16.6015625,-179.19921875,24.4140625
2597,50.29296875,20.99609375,-167.48046875,33.69140625
2598,63.96484375,90.33203125,-117.1875,52.734375
2725,-16.11328125,-216.30859375,-291.9921875,-89.84375
2726,-16.11328125,-277.83203125,-356.93359375,-76.171875
2727,-7.8125,-248.046875,-327.1484375,-67.3828125
2728,-5.37109375,-226.07421875,-241.69921875,-71.2890625
2729,-12.6953125,-271.484375,-279.78515625,-68.359375
2730,0.0,-330.56640625,-341.796875,-62.5
2731,16.6015625,-270.5078125,-260.25390625,-49.31640625
2732,9.765625,-134.27734375,-25.87890625,-43.9453125
2733,-15.13671875,-270.5078125,-126.46484375,-43.45703125
2734,-28.3203125,-363.28125,-270.99609375,-32.71484375
2735,-33.69140625,-267.08984375,-131.34765625,-22.94921875
2736,-22.94921875,-216.796875,2.9296875,-19.53125
2737,-13.671875,-320.80078125,-106.4453125,-20.01953125
2738,-19.53125,-308.59375,-123.53515625,-20.01953125
2739,-0.48828125,-230.46875,1.46484375,-16.6015625
2740,19.53125,-303.22265625,-29.78515625,-7.8125
2741,34.1796875,-368.65234375,-130.37109375,12.20703125
2742,22.94921875,-250.9765625,-25.87890625,-0.9765625
2743,-0.48828125,-208.49609375,76.171875,-29.296875
2744,8.30078125,-275.390625,41.9921875,-19.53125
2745,20.5078125,-340.33203125,-30.2734375,-11.23046875
2746,26.85546875,-353.02734375,-110.83984375,-10.7421875
2747,19.53125,-220.703125,63.4765625,-4.8828125
2748,8.30078125,-229.98046875,144.53125,-10.7421875
2749,4.8828125,-311.03515625,24.90234375,-12.6953125
2750,9.765625,-305.17578125,49.31640625,0.0
2751,5.37109375,-204.58984375,195.80078125,-1.46484375
2752,0.0,-287.109375,108.3984375,-7.8125
2753,1.46484375,-401.3671875,-34.66796875,-2.9296875
2754,-0.9765625,-327.63671875,74.70703125,-9.765625
2755,-3.41796875,-253.90625,209.47265625,-17.578125
2756,-20.01953125,-307.12890625,153.80859375,-19.53125
2757,-33.203125,-458.0078125,-25.87890625,-23.4375
2758,-38.0859375,-398.92578125,31.25,-21.484375
2759,-38.0859375,-238.76953125,285.15625,-41.015625
2760,-53.7109375,-384.765625,138.671875,-65.91796875
2761,-75.1953125,-406.73828125,64.453125,-83.49609375
2762,-88.37890625,-378.90625,98.14453125,-88.8671875
2802,-93.75,-200.1953125,272.4609375,-91.796875
2803,-82.03125,-290.52734375,152.34375,-84.47265625
2804,-81.0546875,-262.20703125,120.1171875,-86.9140625
2889,-90.8203125,120.1171875,214.35546875,-58.59375
2890,-61.03515625,124.51171875,299.8046875,-38.57421875
2891,-46.875,-22.4609375,53.22265625,-23.4375
2892,-26.3671875,0.48828125,-0.48828125,-17.578125
2893,-1.46484375,104.98046875,113.76953125,-1.46484375
2894,7.32421875,97.65625,95.703125,15.625
2895,21.97265625,0.48828125,-79.1015625,32.71484375
2896,35.64453125,16.11328125,-130.37109375,45.41015625
2897,39.55078125,110.3515625,-63.4765625,50.78125
2898,51.26953125,177.24609375,-35.64453125,50.78125
2954,64.94140625,-279.78515625,-256.8359375,53.7109375
2955,52.24609375,-241.69921875,-147.94921875,54.6875
2970,51.7578125,-386.23046875,-340.8203125,54.6875
2971,50.78125,-411.62109375,-337.890625,50.78125
2974,50.29296875,-476.07421875,-421.38671875,42.96875
2975,53.22265625,-545.41015625,-503.90625,35.64453125
3019,38.0859375,-144.53125,-491.69921875,45.8984375
3020,32.2265625,9.27734375,-230.46875,51.7578125
3021,38.0859375,-125.48828125,-291.50390625,47.36328125
3022,34.1796875,-248.53515625,-467.7734375,40.52734375
3023,39.55078125,-129.39453125,-334.9609375,43.9453125
3024,50.29296875,-40.52734375,-163.0859375,51.7578125
3026,47.8515625,-124.51171875,-279.78515625,51.7578125
3027,44.921875,-37.59765625,-157.71484375,46.38671875
3028,44.921875,-89.35546875,-166.50390625,48.33984375
3029,52.734375,-124.51171875,-207.51953125,52.734375
3053,55.6640625,18.06640625,83.0078125,51.7578125
3055,53.7109375,270.99609375,440.91796875,50.78125
3056,61.03515625,132.32421875,293.45703125,46.38671875
3057,57.6171875,152.83203125,274.4140625,45.8984375
3058,45.8984375,218.75,344.23828125,38.57421875
3059,46.875,188.4765625,338.8671875,28.80859375
3060,48.828125,133.30078125,266.11328125,25.87890625
3061,42.48046875,160.64453125,285.64453125,32.71484375
3062,35.64453125,216.30859375,328.61328125,35.64453125
3063,34.1796875,225.5859375,350.5859375,34.1796875
3064,34.1796875,147.94921875,287.109375,30.2734375
3065,31.25,132.8125,245.60546875,23.4375
3066,26.85546875,201.66015625,320.80078125,28.3203125
3067,19.04296875,254.8828125,400.390625,30.76171875
3068,21.97265625,117.1875,274.90234375,21.484375
3069,29.296875,106.4453125,169.43359375,12.20703125
3070,32.71484375,366.69921875,483.88671875,3.41796875
3071,33.69140625,234.375,428.22265625,9.765625
3072,35.15625,175.78125,283.69140625,19.04296875
3073,32.2265625,263.18359375,365.234375,18.06640625
3074,25.390625,246.58203125,375.9765625,17.578125
3075,13.671875,213.8671875,327.1484375,21.97265625
3076,5.859375,230.95703125,306.15234375,24.90234375
3077,1.46484375,257.8125,313.96484375,22.4609375
3078,1.46484375,282.71484375,362.79296875,19.04296875
3079,8.30078125,273.92578125,363.76953125,13.18359375
3080,15.13671875,157.2265625,166.015625,16.6015625
3081,26.85546875,302.24609375,316.40625,26.3671875
3083,4.8828125,232.421875,324.70703125,2.9296875
3084,3.90625,244.62890625,292.48046875,4.39453125
3085,12.20703125,313.4765625,395.99609375,9.27734375
3086,11.23046875,276.3671875,366.69921875,0.0
3087,8.7890625,217.28515625,271.97265625,0.9765625
3088,17.578125,208.0078125,271.97265625,-1.46484375
3089,14.16015625,227.5390625,294.43359375,-3.41796875
3090,10.25390625,295.8984375,383.7890625,2.44140625
3091,13.671875,162.109375,269.53125,6.34765625
3092,11.23046875,170.41015625,225.09765625,5.37109375
3093,8.30078125,329.1015625,447.265625,0.9765625
3094,9.765625,181.15234375,317.87109375,-0.48828125
3095,14.6484375,109.86328125,195.3125,0.0
3096,26.85546875,186.5234375,289.55078125,7.32421875
3097,25.390625,244.62890625,413.0859375,12.6953125
3098,25.390625,139.16015625,297.36328125,14.6484375
3099,33.69140625,161.62109375,285.15625,21.484375
3100,27.83203125,192.87109375,353.02734375,25.87890625
3101,28.80859375,122.55859375,286.1328125,18.5546875
3102,25.87890625,150.87890625,308.59375,14.16015625
3103,15.13671875,116.2109375,244.140625,19.53125
3104,18.06640625,210.9375,352.05078125,7.8125
3105,20.01953125,243.1640625,457.51953125,-3.41796875
3106,8.30078125,120.60546875,286.62109375,-1.46484375
3107,-1.46484375,143.06640625,278.80859375,-3.90625
3108,3.90625,168.45703125,320.80078125,-4.8828125
3109,0.48828125,182.12890625,352.05078125,-8.7890625
3110,-4.8828125,108.88671875,292.48046875,-10.7421875
3111,-14.16015625,98.6328125,263.18359375,-11.23046875
3112,-15.625,166.015625,360.3515625,-14.6484375
3113,-9.765625,93.75,299.31640625,-19.04296875
