,TP9,AF7,AF8,TP10,board_ts,unix_ts
0,-8.30078125,-60.05859375,-52.24609375,-18.5546875,1759871592.3888288,1759871592.3911104
1,-36.1328125,-58.10546875,-54.19921875,-45.8984375,1759871592.3913815,1759871592.3950167
2,-59.5703125,-53.7109375,-56.640625,-76.171875,1759871592.3939342,1759871592.398923
3,-33.69140625,-46.38671875,-53.7109375,-54.6875,1759871592.396487,1759871592.4028292
4,-14.16015625,-44.43359375,-55.6640625,-20.99609375,1759871592.3990397,1759871592.4067354
5,-24.4140625,-50.78125,-56.15234375,-27.83203125,1759871592.4015925,1759871592.4106417
6,-55.6640625,-53.22265625,-48.828125,-64.453125,1759871592.4041452,1759871592.414548
7,-53.22265625,-51.7578125,-46.38671875,-62.01171875,1759871592.406698,1759871592.4184542
8,-14.6484375,-56.640625,-51.26953125,-20.01953125,1759871592.4092507,1759871592.4223604
9,-18.5546875,-63.96484375,-56.640625,-10.25390625,1759871592.4118035,1759871592.4262667
10,-49.8046875,-61.5234375,-55.6640625,-62.01171875,1759871592.4143562,1759871592.430173
11,-53.7109375,-62.5,-57.6171875,-73.2421875,1759871592.416909,1759871592.4340792
12,-20.5078125,-63.96484375,-58.10546875,-22.4609375,1759871592.42178,1759871592.4379854
13,-8.30078125,-59.5703125,-56.640625,-8.30078125,1759871592.4266515,1759871592.4418917
14,-31.73828125,-58.59375,-61.03515625,-33.69140625,1759871592.4315228,1759871592.445798
15,-41.9921875,-60.05859375,-54.19921875,-51.7578125,1759871592.436394,1759871592.4497042
16,-33.69140625,-63.96484375,-50.29296875,-46.875,1759871592.441265,1759871592.4536104
17,-21.97265625,-65.91796875,-47.8515625,-12.20703125,1759871592.4461365,1759871592.4575167
18,-22.94921875,-62.01171875,-42.48046875,-13.18359375,1759871592.4510078,1759871592.461423
19,-54.19921875,-64.94140625,-47.36328125,-54.6875,1759871592.455879,1759871592.4653292
20,-48.33984375,-65.91796875,-51.7578125,-60.05859375,1759871592.46075,1759871592.4692354
21,-13.671875,-64.453125,-48.828125,-27.34375,1759871592.4656215,1759871592.4731417
22,-25.390625,-66.89453125,-46.875,-22.94921875,1759871592.4704928,1759871592.477048
23,-49.8046875,-59.5703125,-47.36328125,-56.15234375,1759871592.475364,1759871592.4809542
24,-48.33984375,-54.6875,-51.26953125,-57.6171875,1759871592.4778552,1759871592.4848604
25,-24.90234375,-58.59375,-44.43359375,-25.390625,1759871592.4803467,1759871592.4887667
26,-19.53125,-62.01171875,-39.55078125,-13.671875,1759871592.482838,1759871592.492673
27,-42.48046875,-57.12890625,-43.9453125,-42.48046875,1759871592.4853294,1759871592.4965792
28,-57.12890625,-56.640625,-44.43359375,-56.15234375,1759871592.4878206,1759871592.5004854
29,-31.25,-55.6640625,-47.8515625,-23.4375,1759871592.4903119,1759871592.5043917
30,-15.13671875,-56.15234375,-53.7109375,1.953125,1759871592.4928033,1759871592.508298
31,-42.48046875,-59.08203125,-54.6875,-24.4140625,1759871592.4952946,1759871592.5122042
32,-53.22265625,-58.10546875,-51.26953125,-56.640625,1759871592.497786,1759871592.5161104
33,-29.78515625,-56.15234375,-50.78125,-45.8984375,1759871592.5002773,1759871592.5200167
34,-13.671875,-56.640625,-57.6171875,-0.48828125,1759871592.5027688,1759871592.523923
35,-36.62109375,-55.6640625,-58.59375,-12.6953125,1759871592.50526,1759871592.5278292
36,-62.01171875,-50.29296875,-52.734375,-64.94140625,1759871592.5102596,1759871592.5317354
37,-45.8984375,-44.43359375,-52.24609375,-57.12890625,1759871592.5152593,1759871592.5356417
38,-20.01953125,-41.015625,-52.734375,-22.4609375,1759871592.5202587,1759871592.539548
39,-26.3671875,-42.96875,-52.24609375,-26.3671875,1759871592.5252583,1759871592.5434542
40,-54.19921875,-47.8515625,-57.12890625,-62.98828125,1759871592.530258,1759871592.5473604
41,-54.6875,-46.875,-56.15234375,-64.94140625,1759871592.5352573,1759871592.5512667
42,-20.01953125,-44.43359375,-53.7109375,-20.01953125,1759871592.540257,1759871592.555173
43,-17.08984375,-38.57421875,-47.8515625,-14.6484375,1759871592.5452566,1759871592.5590792
44,-51.7578125,-30.2734375,-41.50390625,-68.359375,1759871592.5502563,1759871592.5629854
45,-54.6875,-30.76171875,-40.0390625,-77.63671875,1759871592.555256,1759871592.5668917
46,-26.85546875,-26.3671875,-40.0390625,-45.8984375,1759871592.5602553,1759871592.570798
47,-22.4609375,-33.203125,-49.31640625,-22.4609375,1759871592.565255,1759871592.5747042
48,-44.921875,-40.0390625,-56.15234375,-50.78125,1759871592.5690072,1759871592.5786104
49,-63.96484375,-41.015625,-55.17578125,-75.1953125,1759871592.5727592,1759871592.5825167
50,-48.828125,-43.9453125,-57.6171875,-68.359375,1759871592.5765114,1759871592.586423
51,-28.3203125,-38.0859375,-62.5,-48.33984375,1759871592.5802636,1759871592.5903292
52,-50.78125,-38.0859375,-64.453125,-62.01171875,1759871592.5840158,1759871592.5942354
53,-76.66015625,-43.9453125,-63.4765625,-99.609375,1759871592.587768,1759871592.5981417
54,-53.22265625,-39.0625,-56.15234375,-86.42578125,1759871592.59152,1759871592.602048
55,-16.11328125,-34.1796875,-51.26953125,-33.203125,1759871592.5952723,1759871592.6059542
56,-21.484375,-32.2265625,-52.734375,-24.4140625,1759871592.5990245,1759871592.6098604
57,-44.43359375,-30.2734375,-54.6875,-58.59375,1759871592.6027765,1759871592.6137667
58,-47.8515625,-34.66796875,-51.7578125,-63.96484375,1759871592.6065288,1759871592.617673
59,-30.76171875,-36.62109375,-48.33984375,-41.015625,1759871592.610281,1759871592.6215792
60,-22.94921875,-38.0859375,-50.78125,-24.4140625,1759871592.614054,1759871592.6254854
61,-51.7578125,-40.52734375,-54.6875,-59.08203125,1759871592.617827,1759871592.6293917
62,-68.84765625,-42.96875,-53.7109375,-83.0078125,1759871592.6216,1759871592.633298
63,-46.875,-39.0625,-46.875,-51.7578125,1759871592.625373,1759871592.6372042
64,-32.71484375,-38.0859375,-51.26953125,-24.90234375,1759871592.6291459,1759871592.6411104
65,-52.24609375,-43.9453125,-56.15234375,-34.66796875,1759871592.632919,1759871592.6450167
66,-64.453125,-40.0390625,-52.734375,-62.5,1759871592.636692,1759871592.648923
67,-41.015625,-39.55078125,-49.8046875,-74.21875,1759871592.640465,1759871592.6528292
68,-4.39453125,-39.55078125,-44.921875,-34.66796875,1759871592.644238,1759871592.6567354
69,-25.390625,-35.15625,-48.33984375,-40.0390625,1759871592.648011,1759871592.6606417
70,-56.15234375,-34.66796875,-45.8984375,-81.0546875,1759871592.651784,1759871592.664548
71,-44.43359375,-35.64453125,-38.0859375,-69.3359375,1759871592.655557,1759871592.6684542
72,-27.34375,-40.0390625,-41.015625,-27.83203125,1759871592.6593153,1759871592.6723604
73,-29.296875,-38.57421875,-41.9921875,-26.3671875,1759871592.6630738,1759871592.6762667
74,-43.45703125,-33.203125,-38.0859375,-57.12890625,1759871592.6668322,1759871592.680173
75,-44.921875,-29.296875,-31.73828125,-59.5703125,1759871592.6705906,1759871592.6840792
76,-12.6953125,-29.78515625,-30.76171875,-22.4609375,1759871592.674349,1759871592.6879854
77,-5.859375,-35.15625,-32.71484375,-2.44140625,1759871592.6781075,1759871592.6918917
78,-37.109375,-38.0859375,-37.109375,-47.8515625,1759871592.681866,1759871592.695798
79,-54.6875,-33.203125,-36.1328125,-71.77734375,1759871592.6856244,1759871592.6997042
80,-30.2734375,-29.78515625,-34.66796875,-41.9921875,1759871592.6893828,1759871592.7036104
81,0.9765625,-29.78515625,-36.62109375,-6.8359375,1759871592.6931412,1759871592.7075167
82,-23.92578125,-23.4375,-33.203125,-28.3203125,1759871592.6968997,1759871592.711423
83,-50.29296875,-19.53125,-35.64453125,-62.98828125,1759871592.700658,1759871592.7153292
84,-33.69140625,-21.97265625,-32.2265625,-48.33984375,1759871592.7045057,1759871592.7192354
85,-3.41796875,-23.4375,-29.78515625,-6.8359375,1759871592.7083535,1759871592.7231417
86,-7.8125,-20.99609375,-29.296875,1.46484375,1759871592.712201,1759871592.727048
87,-47.36328125,-20.5078125,-32.71484375,-36.1328125,1759871592.7160487,1759871592.7309542
88,-55.6640625,-23.92578125,-42.96875,-62.01171875,1759871592.7198963,1759871592.7348604
89,-11.23046875,-27.83203125,-42.96875,-37.59765625,1759871592.723744,1759871592.7387667
90,-7.32421875,-31.73828125,-41.015625,-28.3203125,1759871592.7275918,1759871592.742673
91,-50.78125,-29.296875,-43.45703125,-67.3828125,1759871592.7314394,1759871592.7465792
92,-58.10546875,-33.69140625,-47.8515625,-83.49609375,1759871592.735287,1759871592.7504854
93,-27.83203125,-38.0859375,-54.6875,-53.7109375,1759871592.7391348,1759871592.7543917
94,-14.6484375,-26.3671875,-45.8984375,-39.0625,1759871592.7429824,1759871592.758298
95,-42.48046875,-23.92578125,-37.59765625,-64.453125,1759871592.74683,1759871592.7622042
96,-58.10546875,-33.203125,-40.0390625,-89.84375,1759871592.7505407,1759871592.7661104
97,-29.78515625,-28.3203125,-38.57421875,-65.91796875,1759871592.7542512,1759871592.7700167
98,-4.8828125,-24.4140625,-38.0859375,-17.578125,1759871592.757962,1759871592.773923
99,-12.6953125,-28.80859375,-41.50390625,-25.87890625,1759871592.7616727,1759871592.7778292
100,-41.50390625,-29.78515625,-42.96875,-70.80078125,1759871592.7653832,1759871592.7817354
101,-33.69140625,-27.83203125,-42.48046875,-62.98828125,1759871592.769094,1759871592.7856417
102,-7.8125,-28.3203125,-41.9921875,-23.92578125,1759871592.7728047,1759871592.789548
103,-17.08984375,-34.1796875,-44.921875,-23.4375,1759871592.7765152,1759871592.7934542
104,-50.78125,-37.59765625,-45.8984375,-50.29296875,1759871592.780226,1759871592.7973604
105,-58.10546875,-36.1328125,-43.45703125,-64.453125,1759871592.7839367,1759871592.8012667
106,-25.87890625,-39.0625,-42.96875,-36.1328125,1759871592.7876472,1759871592.805173
107,-14.6484375,-36.62109375,-45.8984375,-12.6953125,1759871592.791358,1759871592.8090792
108,-40.0390625,-30.2734375,-45.8984375,-46.875,1759871592.7949896,1759871592.8129854
109,-52.734375,-33.203125,-41.015625,-71.2890625,1759871592.7986214,1759871592.8168917
110,-25.390625,-32.71484375,-41.015625,-42.96875,1759871592.802253,1759871592.820798
111,-4.8828125,-33.69140625,-45.41015625,-11.23046875,1759871592.8058846,1759871592.8247042
112,-35.64453125,-38.0859375,-48.828125,-36.62109375,1759871592.8095164,1759871592.8286104
113,-65.4296875,-38.0859375,-47.36328125,-73.2421875,1759871592.813148,1759871592.8325167
114,-42.48046875,-38.0859375,-49.31640625,-60.05859375,1759871592.8167796,1759871592.836423
115,-16.11328125,-38.0859375,-52.734375,-14.6484375,1759871592.8204114,1759871592.8403292
116,-35.15625,-37.59765625,-50.29296875,-16.11328125,1759871592.824043,1759871592.8442354
117,-69.3359375,-39.55078125,-44.43359375,-61.03515625,1759871592.8276746,1759871592.8481417
118,-60.05859375,-40.0390625,-45.41015625,-72.265625,1759871592.8313065,1759871592.852048
119,-17.08984375,-41.50390625,-52.24609375,-41.015625,1759871592.834938,1759871592.8559542
120,-18.06640625,-44.921875,-54.6875,-32.71484375,1759871592.8387284,1759871592.8598604
121,-52.24609375,-42.96875,-49.31640625,-71.77734375,1759871592.842519,1759871592.8637667
122,-55.6640625,-37.109375,-42.48046875,-82.03125,1759871592.8463097,1759871592.867673
123,-26.3671875,-37.59765625,-44.43359375,-54.19921875,1759871592.8501,1759871592.8715792
124,-11.23046875,-36.1328125,-46.38671875,-34.1796875,1759871592.8538904,1759871592.8754854
125,-41.50390625,-37.59765625,-46.875,-47.36328125,1759871592.857681,1759871592.8793917
126,-66.89453125,-40.52734375,-49.31640625,-63.96484375,1759871592.8614717,1759871592.883298
127,-34.66796875,-42.96875,-44.43359375,-42.48046875,1759871592.865262,1759871592.8872042
128,-7.32421875,-38.57421875,-38.0859375,-15.13671875,1759871592.8690524,1759871592.8911104
129,-31.73828125,-32.71484375,-34.66796875,-27.34375,1759871592.872843,1759871592.8950167
130,-55.6640625,-36.62109375,-39.0625,-66.89453125,1759871592.8766336,1759871592.898923
131,-46.38671875,-38.57421875,-39.55078125,-61.5234375,1759871592.880424,1759871592.9028292
132,-10.25390625,-39.0625,-30.76171875,-28.80859375,1759871592.8842764,1759871592.9067354
133,-16.11328125,-39.55078125,-28.3203125,-40.52734375,1759871592.8881285,1759871592.9106417
134,-54.6875,-37.109375,-31.73828125,-62.98828125,1759871592.8919806,1759871592.914548
135,-52.24609375,-33.69140625,-33.203125,-69.82421875,1759871592.895833,1759871592.9184542
136,-15.13671875,-34.1796875,-32.2265625,-45.41015625,1759871592.8996854,1759871592.9223604
137,-4.39453125,-34.66796875,-30.2734375,-28.3203125,1759871592.9035375,1759871592.9262667
138,-37.109375,-38.57421875,-39.0625,-49.8046875,1759871592.9073896,1759871592.930173
139,-45.8984375,-41.9921875,-46.38671875,-60.546875,1759871592.911242,1759871592.9340792
140,-25.390625,-39.55078125,-45.41015625,-49.8046875,1759871592.9150944,1759871592.9379854
141,-8.7890625,-35.64453125,-40.52734375,-23.92578125,1759871592.9189465,1759871592.9418917
142,-16.6015625,-32.71484375,-34.1796875,-34.66796875,1759871592.9227986,1759871592.945798
143,-40.0390625,-36.62109375,-30.2734375,-56.640625,1759871592.926651,1759871592.9497042
144,-26.85546875,-40.52734375,-31.25,-43.9453125,1759871592.9315991,1759871592.9536104
145,1.46484375,-42.96875,-32.71484375,-2.44140625,1759871592.9365473,1759871592.9575167
146,-15.13671875,-48.828125,-33.203125,-18.06640625,1759871592.9414954,1759871592.961423
147,-55.17578125,-52.734375,-42.96875,-67.87109375,1759871592.9464436,1759871592.9653292
148,-37.109375,-50.78125,-48.33984375,-60.05859375,1759871592.9513917,1759871592.9692354
149,2.9296875,-55.17578125,-41.50390625,-19.04296875,1759871592.9563398,1759871592.9731417
150,0.9765625,-56.640625,-43.9453125,-3.90625,1759871592.9612882,1759871592.977048
151,-46.875,-47.36328125,-41.015625,-49.8046875,1759871592.9662364,1759871592.9809542
152,-55.17578125,-46.38671875,-33.203125,-72.75390625,1759871592.9711845,1759871592.9848604
153,-7.8125,-50.78125,-35.15625,-22.4609375,1759871592.9761326,1759871592.9887667
154,6.34765625,-48.33984375,-30.2734375,0.9765625,1759871592.9810808,1759871592.992673
155,-32.71484375,-42.96875,-28.80859375,-32.2265625,1759871592.986029,1759871592.9965792
156,-58.59375,-45.41015625,-33.203125,-63.96484375,1759871592.9897301,1759871593.0004854
157,-35.15625,-48.828125,-33.69140625,-46.875,1759871592.9934313,1759871593.0043917
158,-6.34765625,-43.9453125,-38.57421875,-9.27734375,1759871592.9971325,1759871593.008298
159,-31.73828125,-41.015625,-41.9921875,-27.34375,1759871593.0008335,1759871593.0122042
160,-70.80078125,-45.41015625,-40.52734375,-68.359375,1759871593.0045347,1759871593.0161104
161,-46.875,-48.33984375,-37.109375,-60.546875,1759871593.008236,1759871593.0200167
162,-21.484375,-49.31640625,-29.296875,-25.87890625,1759871593.0119371,1759871593.023923
163,-37.59765625,-49.8046875,-33.203125,-41.015625,1759871593.0156384,1759871593.0278292
164,-66.40625,-52.24609375,-35.15625,-85.44921875,1759871593.0193396,1759871593.0317354
165,-57.6171875,-46.875,-36.62109375,-75.1953125,1759871593.0230405,1759871593.0356417
166,-18.06640625,-45.41015625,-38.0859375,-30.76171875,1759871593.0267417,1759871593.039548
167,-22.4609375,-43.9453125,-35.15625,-27.34375,1759871593.030443,1759871593.0434542
168,-62.5,-48.33984375,-42.48046875,-66.89453125,1759871593.0341828,1759871593.0473604
169,-74.21875,-55.17578125,-43.9453125,-85.44921875,1759871593.0379224,1759871593.0512667
170,-41.015625,-50.78125,-41.50390625,-52.734375,1759871593.0416622,1759871593.055173
171,-24.4140625,-46.38671875,-43.9453125,-24.90234375,1759871593.045402,1759871593.0590792
172,-56.640625,-48.33984375,-49.31640625,-58.10546875,1759871593.0491416,1759871593.0629854
173,-59.5703125,-46.38671875,-52.734375,-93.26171875,1759871593.0528815,1759871593.0668917
174,-21.97265625,-36.62109375,-47.36328125,-73.2421875,1759871593.0566213,1759871593.070798
175,2.44140625,-33.69140625,-43.9453125,-38.0859375,1759871593.060361,1759871593.0747042
176,-16.6015625,-38.0859375,-53.7109375,-47.8515625,1759871593.0641007,1759871593.0786104
177,-42.96875,-43.45703125,-56.640625,-62.01171875,1759871593.0678406,1759871593.0825167
178,-33.69140625,-41.50390625,-48.33984375,-58.10546875,1759871593.0715802,1759871593.086423
179,-5.37109375,-33.69140625,-42.96875,-26.3671875,1759871593.07532,1759871593.0903292
180,-10.25390625,-33.203125,-45.8984375,-11.23046875,1759871593.0791059,1759871593.0942354
181,-49.31640625,-41.015625,-45.41015625,-50.78125,1759871593.0828915,1759871593.0981417
182,-51.26953125,-41.015625,-45.41015625,-63.4765625,1759871593.0866773,1759871593.102048
183,-17.578125,-39.0625,-48.33984375,-27.34375,1759871593.090463,1759871593.1059542
184,-9.765625,-40.0390625,-43.45703125,-14.16015625,1759871593.0942488,1759871593.1098604
185,-45.41015625,-41.015625,-40.52734375,-46.38671875,1759871593.0980346,1759871593.1137667
186,-62.5,-36.62109375,-38.57421875,-58.10546875,1759871593.1018202,1759871593.117673
187,-23.92578125,-31.73828125,-41.015625,-39.0625,1759871593.105606,1759871593.1215792
188,-5.859375,-34.1796875,-49.8046875,-16.11328125,1759871593.1093917,1759871593.1254854
189,-43.45703125,-32.71484375,-44.921875,-35.64453125,1759871593.1131775,1759871593.1293917
190,-68.84765625,-30.2734375,-39.0625,-82.03125,1759871593.1169631,1759871593.133298
191,-44.43359375,-34.66796875,-46.875,-68.84765625,1759871593.120749,1759871593.1372042
192,-15.13671875,-38.0859375,-52.734375,-30.2734375,1759871593.1245549,1759871593.1411104
193,-39.0625,-38.0859375,-52.24609375,-46.38671875,1759871593.1283607,1759871593.1450167
194,-67.3828125,-33.203125,-43.9453125,-74.21875,1759871593.1321666,1759871593.148923
195,-50.78125,-33.69140625,-47.36328125,-67.3828125,1759871593.1359727,1759871593.1528292
196,-20.99609375,-38.57421875,-54.6875,-31.25,1759871593.1397786,1759871593.1567354
197,-31.25,-41.015625,-48.828125,-28.3203125,1759871593.1435845,1759871593.1606417
198,-69.82421875,-45.8984375,-49.8046875,-69.82421875,1759871593.1473904,1759871593.164548
199,-73.73046875,-51.7578125,-50.78125,-84.9609375,1759871593.1511962,1759871593.1684542
200,-33.203125,-55.17578125,-51.7578125,-50.29296875,1759871593.155002,1759871593.1723604
201,-22.4609375,-58.59375,-58.10546875,-36.62109375,1759871593.1588082,1759871593.1762667
202,-59.5703125,-61.5234375,-59.08203125,-74.70703125,1759871593.162614,1759871593.180173
203,-80.56640625,-65.91796875,-54.19921875,-84.9609375,1759871593.16642,1759871593.1840792
204,-55.17578125,-62.98828125,-52.24609375,-48.33984375,1759871593.1701171,1759871593.1879854
205,-23.92578125,-62.01171875,-51.7578125,-24.4140625,1759871593.173814,1759871593.1918917
206,-46.875,-68.359375,-59.5703125,-41.9921875,1759871593.1775112,1759871593.195798
207,-70.80078125,-70.3125,-62.98828125,-67.3828125,1759871593.1812084,1759871593.1997042
208,-56.640625,-64.94140625,-60.05859375,-45.41015625,1759871593.1849053,1759871593.2036104
209,-19.53125,-63.4765625,-56.15234375,-9.27734375,1759871593.1886024,1759871593.2075167
210,-23.4375,-64.453125,-52.24609375,-42.48046875,1759871593.1922996,1759871593.211423
211,-61.03515625,-61.03515625,-51.7578125,-83.984375,1759871593.1959965,1759871593.2153292
212,-53.7109375,-60.546875,-52.734375,-72.75390625,1759871593.1996937,1759871593.2192354
213,-25.390625,-55.6640625,-48.33984375,-35.15625,1759871593.2033908,1759871593.2231417
214,-21.484375,-49.8046875,-46.875,-28.3203125,1759871593.2070878,1759871593.227048
215,-52.24609375,-54.19921875,-49.8046875,-67.87109375,1759871593.210785,1759871593.2309542
216,-65.91796875,-61.03515625,-49.8046875,-83.0078125,1759871593.2145836,1759871593.2348604
217,-40.0390625,-62.5,-49.8046875,-51.7578125,1759871593.2183824,1759871593.2387667
218,-29.78515625,-61.5234375,-50.78125,-27.34375,1759871593.222181,1759871593.242673
219,-60.05859375,-59.5703125,-48.33984375,-54.6875,1759871593.2259796,1759871593.2465792
220,-86.9140625,-54.19921875,-50.29296875,-83.49609375,1759871593.2297783,1759871593.2504854
221,-52.734375,-49.8046875,-54.6875,-62.01171875,1759871593.233577,1759871593.2543917
222,-25.390625,-52.734375,-59.08203125,-22.4609375,1759871593.2373757,1759871593.258298
223,-57.6171875,-56.640625,-58.10546875,-34.66796875,1759871593.2411745,1759871593.2622042
224,-89.35546875,-53.7109375,-58.10546875,-75.1953125,1759871593.2449732,1759871593.2661104
225,-67.3828125,-50.29296875,-59.08203125,-62.5,1759871593.2487717,1759871593.2700167
226,-36.1328125,-52.24609375,-58.10546875,-25.87890625,1759871593.2525704,1759871593.273923
227,-49.8046875,-52.734375,-56.15234375,-39.55078125,1759871593.256369,1759871593.2778292
228,-75.68359375,-47.36328125,-59.5703125,-86.42578125,1759871593.2612996,1759871593.2817354
229,-70.80078125,-39.55078125,-58.59375,-83.984375,1759871593.2662303,1759871593.2856417
230,-31.73828125,-41.9921875,-55.6640625,-34.66796875,1759871593.2711608,1759871593.289548
231,-25.87890625,-43.9453125,-55.17578125,-27.34375,1759871593.2760913,1759871593.2934542
232,-62.01171875,-35.15625,-48.33984375,-61.5234375,1759871593.281022,1759871593.2973604
233,-59.5703125,-37.109375,-43.45703125,-69.3359375,1759871593.2859526,1759871593.3012667
234,-9.27734375,-41.9921875,-46.875,-8.7890625,1759871593.290883,1759871593.305173
235,-2.9296875,-37.109375,-48.828125,24.90234375,1759871593.2958138,1759871593.3090792
236,-50.29296875,-34.66796875,-51.7578125,-47.36328125,1759871593.3007443,1759871593.3129854
237,-56.15234375,-33.69140625,-51.26953125,-90.33203125,1759871593.3056748,1759871593.3168917
238,-17.578125,-30.76171875,-45.41015625,-52.734375,1759871593.3106055,1759871593.320798
239,13.18359375,-35.64453125,-42.96875,-4.39453125,1759871593.315536,1759871593.3247042
240,-7.8125,-37.59765625,-51.26953125,-13.18359375,1759871593.3192904,1759871593.3286104
241,-41.9921875,-38.0859375,-56.15234375,-49.8046875,1759871593.3230448,1759871593.3325167
242,-24.4140625,-38.57421875,-51.26953125,-41.9921875,1759871593.3267992,1759871593.336423
243,21.97265625,-30.2734375,-51.7578125,-0.9765625,1759871593.3305538,1759871593.3403292
244,18.5546875,-22.94921875,-52.24609375,0.9765625,1759871593.3343081,1759871593.3442354
245,-14.6484375,-22.94921875,-51.26953125,-26.85546875,1759871593.3380625,1759871593.3481417
246,-6.34765625,-19.04296875,-49.8046875,-19.04296875,1759871593.341817,1759871593.352048
247,32.71484375,-15.625,-43.45703125,17.578125,1759871593.3455713,1759871593.3559542
248,37.109375,-18.5546875,-43.9453125,20.01953125,1759871593.3493257,1759871593.3598604
249,0.0,-17.578125,-50.78125,-1.46484375,1759871593.3530803,1759871593.3637667
250,-5.859375,-19.53125,-58.10546875,-6.34765625,1759871593.3568347,1759871593.367673
251,22.4609375,-18.06640625,-56.640625,2.9296875,1759871593.360589,1759871593.3715792
252,36.1328125,-9.27734375,-45.8984375,17.578125,1759871593.3643239,1759871593.3754854
253,5.859375,-12.6953125,-38.0859375,-0.9765625,1759871593.368059,1759871593.3793917
254,-23.92578125,-17.08984375,-35.15625,-22.94921875,1759871593.3717937,1759871593.383298
255,-1.46484375,-18.06640625,-33.203125,5.37109375,1759871593.3755286,1759871593.3872042
256,23.4375,-19.04296875,-36.62109375,33.69140625,1759871593.3792636,1759871593.3911104
257,2.9296875,-16.11328125,-41.50390625,12.6953125,1759871593.3829985,1759871593.3950167
258,-30.76171875,-16.6015625,-39.0625,-25.87890625,1759871593.3867333,1759871593.398923
259,-17.08984375,-19.53125,-38.57421875,-31.73828125,1759871593.3904684,1759871593.4028292
260,12.20703125,-16.11328125,-40.0390625,1.46484375,1759871593.3942032,1759871593.4067354
261,6.8359375,-17.578125,-44.921875,6.8359375,1759871593.397938,1759871593.4106417
262,-21.484375,-16.11328125,-41.50390625,-29.78515625,1759871593.401673,1759871593.414548
263,-20.5078125,-12.6953125,-32.2265625,-34.1796875,1759871593.405408,1759871593.4184542
264,16.11328125,-15.13671875,-31.73828125,10.7421875,1759871593.409111,1759871593.4223604
265,17.08984375,-19.53125,-34.1796875,22.4609375,1759871593.4128141,1759871593.4262667
266,-24.90234375,-22.4609375,-37.59765625,-21.484375,1759871593.4165175,1759871593.430173
267,-39.0625,-21.97265625,-40.52734375,-44.43359375,1759871593.4202206,1759871593.4340792
268,-4.39453125,-17.08984375,-38.57421875,-14.16015625,1759871593.4239237,1759871593.4379854
269,13.671875,-16.11328125,-36.62109375,20.01953125,1759871593.427627,1759871593.4418917
270,-14.16015625,-21.97265625,-35.15625,0.48828125,1759871593.4313302,1759871593.445798
271,-44.43359375,-28.3203125,-33.203125,-47.36328125,1759871593.4350333,1759871593.4497042
272,-23.92578125,-31.73828125,-40.0390625,-36.1328125,1759871593.4387364,1759871593.4536104
273,6.8359375,-30.2734375,-49.31640625,7.32421875,1759871593.4424396,1759871593.4575167
274,-13.671875,-28.3203125,-45.8984375,-4.39453125,1759871593.446143,1759871593.461423
275,-54.19921875,-28.3203125,-41.015625,-40.0390625,1759871593.449846,1759871593.4653292
276,-41.9921875,-25.87890625,-38.57421875,-36.62109375,1759871593.4536097,1759871593.4692354
277,11.23046875,-23.92578125,-37.59765625,-4.8828125,1759871593.4573731,1759871593.4731417
278,0.48828125,-25.390625,-39.0625,-7.32421875,1759871593.4611368,1759871593.477048
279,-44.43359375,-37.109375,-40.0390625,-52.734375,1759871593.4649003,1759871593.4809542
280,-51.7578125,-43.9453125,-43.45703125,-64.453125,1759871593.468664,1759871593.4848604
281,-20.5078125,-43.9453125,-48.828125,-30.2734375,1759871593.4724276,1759871593.4887667
282,-6.34765625,-37.59765625,-47.36328125,-10.25390625,1759871593.476191,1759871593.492673
283,-36.62109375,-30.2734375,-41.015625,-36.62109375,1759871593.4799547,1759871593.4965792
284,-49.8046875,-34.66796875,-43.45703125,-49.31640625,1759871593.4837182,1759871593.5004854
285,-24.4140625,-41.015625,-42.96875,-15.625,1759871593.4874818,1759871593.5043917
286,-1.953125,-36.1328125,-37.109375,6.34765625,1759871593.4912453,1759871593.508298
287,-23.92578125,-36.62109375,-39.0625,-21.484375,1759871593.495009,1759871593.5122042
288,-58.59375,-45.8984375,-45.41015625,-55.6640625,1759871593.4987738,1759871593.5161104
289,-45.8984375,-47.36328125,-45.8984375,-41.9921875,1759871593.5025387,1759871593.5200167
290,-4.39453125,-45.41015625,-39.55078125,-2.9296875,1759871593.5063035,1759871593.523923
291,-18.5546875,-44.921875,-37.59765625,-9.27734375,1759871593.5100682,1759871593.5278292
292,-60.546875,-45.41015625,-45.41015625,-53.22265625,1759871593.513833,1759871593.5317354
293,-58.59375,-52.734375,-50.78125,-60.546875,1759871593.517598,1759871593.5356417
294,-23.4375,-50.29296875,-48.33984375,-24.90234375,1759871593.5213628,1759871593.539548
295,-18.5546875,-52.24609375,-46.875,-11.71875,1759871593.5251276,1759871593.5434542
296,-59.5703125,-59.08203125,-50.78125,-46.875,1759871593.5288925,1759871593.5473604
297,-65.91796875,-55.17578125,-47.36328125,-61.03515625,1759871593.5326571,1759871593.5512667
298,-26.85546875,-55.6640625,-44.921875,-35.15625,1759871593.536422,1759871593.555173
299,-8.30078125,-58.59375,-51.7578125,-13.671875,1759871593.540187,1759871593.5590792
300,-40.52734375,-59.08203125,-47.8515625,-26.85546875,1759871593.5440578,1759871593.5629854
301,-66.89453125,-59.5703125,-45.41015625,-45.41015625,1759871593.5479288,1759871593.5668917
302,-41.015625,-60.546875,-49.8046875,-29.296875,1759871593.5517998,1759871593.570798
303,-4.39453125,-59.08203125,-53.22265625,-11.23046875,1759871593.555671,1759871593.5747042
304,-30.2734375,-57.12890625,-55.6640625,-36.1328125,1759871593.559542,1759871593.5786104
305,-67.87109375,-62.01171875,-51.26953125,-73.73046875,1759871593.563413,1759871593.5825167
306,-62.01171875,-65.91796875,-54.6875,-71.2890625,1759871593.5672839,1759871593.586423
307,-26.85546875,-65.4296875,-63.4765625,-32.2265625,1759871593.5711548,1759871593.5903292
308,-32.2265625,-65.91796875,-66.89453125,-34.1796875,1759871593.5750258,1759871593.5942354
309,-72.265625,-62.01171875,-64.453125,-80.078125,1759871593.578897,1759871593.5981417
310,-76.171875,-62.5,-63.4765625,-84.9609375,1759871593.582768,1759871593.602048
311,-36.62109375,-63.96484375,-60.546875,-42.96875,1759871593.586639,1759871593.6059542
312,-23.92578125,-60.546875,-53.22265625,-22.4609375,1759871593.5902855,1759871593.6098604
313,-62.01171875,-56.15234375,-46.875,-58.59375,1759871593.5939322,1759871593.6137667
314,-67.87109375,-55.17578125,-50.29296875,-75.68359375,1759871593.597579,1759871593.617673
315,-22.4609375,-50.29296875,-48.828125,-36.62109375,1759871593.6012256,1759871593.6215792
316,3.90625,-43.45703125,-43.9453125,-5.37109375,1759871593.6048722,1759871593.6254854
317,-25.87890625,-39.0625,-54.6875,-37.59765625,1759871593.608519,1759871593.6293917
318,-72.75390625,-40.52734375,-60.546875,-84.9609375,1759871593.6121657,1759871593.633298
319,-52.734375,-45.8984375,-66.89453125,-63.96484375,1759871593.6158123,1759871593.6372042
320,-13.18359375,-46.875,-71.77734375,-27.83203125,1759871593.619459,1759871593.6411104
321,-38.57421875,-52.24609375,-62.5,-56.640625,1759871593.6231055,1759871593.6450167
322,-88.8671875,-57.12890625,-57.12890625,-92.28515625,1759871593.6267524,1759871593.648923
323,-79.1015625,-56.15234375,-55.6640625,-81.0546875,1759871593.630399,1759871593.6528292
324,-29.296875,-57.6171875,-53.7109375,-41.50390625,1759871593.634112,1759871593.6567354
325,-36.1328125,-55.17578125,-52.24609375,-43.9453125,1759871593.6378245,1759871593.6606417
326,-73.2421875,-52.734375,-52.24609375,-78.125,1759871593.6415374,1759871593.664548
327,-64.453125,-57.12890625,-51.26953125,-69.3359375,1759871593.6452503,1759871593.6684542
328,-27.34375,-56.15234375,-54.6875,-36.1328125,1759871593.6489632,1759871593.6723604
329,-17.08984375,-59.08203125,-53.22265625,-25.390625,1759871593.652676,1759871593.6762667
330,-50.78125,-59.08203125,-54.19921875,-60.546875,1759871593.6563888,1759871593.680173
331,-68.84765625,-56.640625,-58.10546875,-86.9140625,1759871593.6601017,1759871593.6840792
332,-34.1796875,-53.7109375,-47.8515625,-53.22265625,1759871593.6638145,1759871593.6879854
333,-4.8828125,-52.24609375,-43.9453125,-11.23046875,1759871593.6675272,1759871593.6918917
334,-40.52734375,-57.6171875,-44.921875,-34.66796875,1759871593.67124,1759871593.695798
335,-69.82421875,-54.6875,-46.875,-73.73046875,1759871593.674953,1759871593.6997042
336,-41.015625,-50.78125,-53.22265625,-71.2890625,1759871593.6800072,1759871593.7036104
337,-13.18359375,-53.7109375,-49.31640625,-34.66796875,1759871593.6850615,1759871593.7075167
338,-27.34375,-53.22265625,-41.50390625,-30.2734375,1759871593.6901157,1759871593.711423
339,-62.01171875,-50.78125,-42.48046875,-57.6171875,1759871593.69517,1759871593.7153292
340,-52.734375,-49.31640625,-45.8984375,-53.22265625,1759871593.7002242,1759871593.7192354
341,-13.671875,-51.7578125,-49.8046875,-21.97265625,1759871593.7052784,1759871593.7231417
342,-22.94921875,-51.26953125,-54.19921875,-27.83203125,1759871593.7103329,1759871593.727048
343,-69.82421875,-44.921875,-45.41015625,-65.91796875,1759871593.715387,1759871593.7309542
344,-66.40625,-43.45703125,-41.015625,-72.265625,1759871593.7204413,1759871593.7348604
345,-20.01953125,-49.8046875,-46.38671875,-31.73828125,1759871593.7254956,1759871593.7387667
346,-9.27734375,-51.26953125,-44.43359375,-4.39453125,1759871593.7305498,1759871593.742673
347,-45.41015625,-49.8046875,-44.43359375,-54.19921875,1759871593.735604,1759871593.7465792
348,-60.05859375,-54.19921875,-48.33984375,-87.890625,1759871593.7392986,1759871593.7504854
349,-40.52734375,-56.640625,-52.24609375,-57.6171875,1759871593.742993,1759871593.7543917
350,-16.11328125,-51.7578125,-53.7109375,-21.97265625,1759871593.7466877,1759871593.758298
351,-34.66796875,-51.7578125,-56.15234375,-47.8515625,1759871593.750382,1759871593.7622042
352,-75.68359375,-55.6640625,-55.6640625,-83.0078125,1759871593.7540765,1759871593.7661104
353,-60.05859375,-52.24609375,-49.31640625,-59.08203125,1759871593.757771,1759871593.7700167
354,-17.578125,-50.78125,-44.921875,-18.5546875,1759871593.7614655,1759871593.773923
355,-23.92578125,-52.24609375,-50.29296875,-28.3203125,1759871593.76516,1759871593.7778292
356,-61.03515625,-50.29296875,-45.8984375,-63.4765625,1759871593.7688546,1759871593.7817354
357,-50.78125,-51.26953125,-41.50390625,-58.10546875,1759871593.772549,1759871593.7856417
358,-11.23046875,-48.828125,-41.015625,-23.4375,1759871593.7762434,1759871593.789548
359,-7.32421875,-46.38671875,-42.96875,-35.64453125,1759871593.779938,1759871593.7934542
360,-49.8046875,-48.33984375,-42.96875,-68.359375,1759871593.7838066,1759871593.7973604
361,-62.01171875,-46.38671875,-37.109375,-60.05859375,1759871593.7876751,1759871593.8012667
362,-16.11328125,-43.9453125,-43.45703125,-28.3203125,1759871593.7915437,1759871593.805173
363,-11.71875,-41.50390625,-44.43359375,-27.83203125,1759871593.7954123,1759871593.8090792
364,-54.19921875,-44.921875,-43.45703125,-60.05859375,1759871593.799281,1759871593.8129854
365,-59.08203125,-48.828125,-46.875,-82.51953125,1759871593.8031495,1759871593.8168917
366,-28.80859375,-45.41015625,-44.921875,-57.12890625,1759871593.807018,1759871593.820798
367,0.9765625,-41.9921875,-40.52734375,-8.7890625,1759871593.8108866,1759871593.8247042
368,-20.01953125,-48.828125,-42.48046875,-21.97265625,1759871593.8147552,1759871593.8286104
369,-55.6640625,-53.7109375,-43.9453125,-53.7109375,1759871593.8186238,1759871593.8325167
370,-50.78125,-54.19921875,-44.43359375,-54.6875,1759871593.8224924,1759871593.836423
371,-13.671875,-59.08203125,-46.38671875,-19.04296875,1759871593.826361,1759871593.8403292
372,-17.578125,-62.98828125,-53.7109375,-17.578125,1759871593.83004,1759871593.8442354
373,-60.05859375,-62.98828125,-50.78125,-62.98828125,1759871593.8337188,1759871593.8481417
374,-65.4296875,-60.546875,-45.8984375,-63.96484375,1759871593.8373976,1759871593.852048
375,-29.78515625,-55.6640625,-51.26953125,-18.06640625,1759871593.8410766,1759871593.8559542
376,-7.8125,-50.29296875,-48.828125,-8.30078125,1759871593.8447556,1759871593.8598604
377,-43.45703125,-48.33984375,-46.875,-50.29296875,1759871593.8484344,1759871593.8637667
378,-58.10546875,-46.875,-47.36328125,-67.3828125,1759871593.8521132,1759871593.867673
379,-20.5078125,-49.31640625,-43.45703125,-38.0859375,1759871593.8557923,1759871593.8715792
380,-8.30078125,-57.12890625,-47.36328125,-16.11328125,1759871593.8594713,1759871593.8754854
381,-42.48046875,-58.10546875,-51.26953125,-41.50390625,1759871593.8631501,1759871593.8793917
382,-68.84765625,-52.734375,-43.45703125,-71.77734375,1759871593.866829,1759871593.883298
383,-38.57421875,-57.6171875,-38.57421875,-45.8984375,1759871593.870508,1759871593.8872042
384,-7.8125,-58.59375,-41.50390625,-14.6484375,1759871593.8743577,1759871593.8911104
385,-36.1328125,-53.22265625,-47.36328125,-39.0625,1759871593.8782074,1759871593.8950167
386,-72.265625,-52.734375,-46.875,-73.73046875,1759871593.8820572,1759871593.898923
387,-51.7578125,-51.7578125,-44.43359375,-68.359375,1759871593.885907,1759871593.9028292
388,0.9765625,-43.45703125,-40.0390625,-13.671875,1759871593.8897567,1759871593.9067354
389,-9.765625,-41.015625,-36.62109375,-2.44140625,1759871593.8936064,1759871593.9106417
390,-55.17578125,-41.9921875,-35.15625,-53.22265625,1759871593.8974562,1759871593.914548
391,-45.41015625,-38.57421875,-36.1328125,-58.59375,1759871593.901306,1759871593.9184542
392,-6.8359375,-39.0625,-40.52734375,-15.13671875,1759871593.9051557,1759871593.9223604
393,-0.9765625,-38.57421875,-37.109375,-3.41796875,1759871593.9090054,1759871593.9262667
394,-45.41015625,-42.48046875,-39.55078125,-40.0390625,1759871593.9128551,1759871593.930173
395,-69.82421875,-44.43359375,-42.48046875,-64.94140625,1759871593.916705,1759871593.9340792
396,-32.2265625,-41.50390625,-44.43359375,-41.50390625,1759871593.9203448,1759871593.9379854
397,-5.859375,-38.0859375,-45.8984375,-18.06640625,1759871593.923985,1759871593.9418917
398,-39.0625,-38.0859375,-37.59765625,-38.0859375,1759871593.927625,1759871593.945798
399,-69.3359375,-40.0390625,-38.0859375,-60.546875,1759871593.9312649,1759871593.9497042
400,-39.55078125,-38.57421875,-47.36328125,-48.33984375,1759871593.934905,1759871593.9536104
401,0.9765625,-39.55078125,-47.8515625,-6.8359375,1759871593.938545,1759871593.9575167
402,-17.08984375,-43.45703125,-39.0625,-16.11328125,1759871593.942185,1759871593.961423
403,-52.734375,-47.8515625,-39.0625,-49.31640625,1759871593.945825,1759871593.9653292
404,-32.71484375,-43.45703125,-39.55078125,-45.8984375,1759871593.949465,1759871593.9692354
405,5.37109375,-36.1328125,-32.71484375,-18.5546875,1759871593.953105,1759871593.9731417
406,-2.9296875,-37.59765625,-32.71484375,-22.94921875,1759871593.9567451,1759871593.977048
407,-41.015625,-47.8515625,-34.66796875,-59.08203125,1759871593.960385,1759871593.9809542
408,-45.8984375,-52.734375,-34.66796875,-61.03515625,1759871593.9641597,1759871593.9848604
409,-7.8125,-45.8984375,-36.62109375,-19.04296875,1759871593.9679341,1759871593.9887667
410,2.44140625,-43.9453125,-39.0625,4.8828125,1759871593.9717088,1759871593.992673
411,-29.78515625,-45.8984375,-39.55078125,-26.85546875,1759871593.9754834,1759871593.9965792
412,-42.48046875,-46.875,-37.59765625,-45.8984375,1759871593.979258,1759871594.0004854
413,-10.7421875,-47.36328125,-38.57421875,-24.4140625,1759871593.9830327,1759871594.0043917
414,15.625,-44.921875,-33.203125,12.6953125,1759871593.986807,1759871594.008298
415,-3.41796875,-44.921875,-28.3203125,3.41796875,1759871593.9905818,1759871594.0122042
416,-33.203125,-42.48046875,-27.83203125,-35.64453125,1759871593.9943564,1759871594.0161104
417,-22.4609375,-39.55078125,-26.85546875,-24.90234375,1759871593.9981308,1759871594.0200167
418,11.23046875,-41.50390625,-27.34375,15.13671875,1759871594.0019054,1759871594.023923
419,-8.30078125,-42.96875,-30.2734375,-12.6953125,1759871594.00568,1759871594.0278292
420,-48.828125,-42.96875,-33.69140625,-60.05859375,1759871594.009418,1759871594.0317354
421,-39.55078125,-44.43359375,-36.1328125,-49.8046875,1759871594.013156,1759871594.0356417
422,1.953125,-42.96875,-42.48046875,-5.37109375,1759871594.016894,1759871594.039548
423,-4.8828125,-44.43359375,-44.43359375,0.48828125,1759871594.020632,1759871594.0434542
424,-49.8046875,-50.29296875,-44.921875,-51.7578125,1759871594.02437,1759871594.0473604
425,-54.19921875,-49.31640625,-39.0625,-60.546875,1759871594.0281081,1759871594.0512667
426,-20.5078125,-52.734375,-39.0625,-14.16015625,1759871594.031846,1759871594.055173
427,-2.44140625,-57.12890625,-41.9921875,4.39453125,1759871594.035584,1759871594.0590792
428,-40.0390625,-54.6875,-47.36328125,-37.59765625,1759871594.039322,1759871594.0629854
429,-68.84765625,-58.59375,-47.8515625,-62.01171875,1759871594.0430598,1759871594.0668917
430,-33.203125,-57.6171875,-40.0390625,-26.85546875,1759871594.046798,1759871594.070798
431,0.0,-47.8515625,-44.43359375,-5.37109375,1759871594.050536,1759871594.0747042
432,-21.484375,-46.875,-46.875,-33.69140625,1759871594.0555515,1759871594.0786104
433,-49.31640625,-46.38671875,-47.36328125,-64.453125,1759871594.0605671,1759871594.0825167
434,-40.52734375,-43.45703125,-47.36328125,-51.7578125,1759871594.0655828,1759871594.086423
435,-1.46484375,-37.109375,-39.55078125,-1.46484375,1759871594.0705984,1759871594.0903292
436,-14.16015625,-36.1328125,-39.55078125,-3.41796875,1759871594.075614,1759871594.0942354
437,-47.8515625,-38.57421875,-42.96875,-41.50390625,1759871594.0806296,1759871594.0981417
438,-38.0859375,-39.55078125,-40.0390625,-40.0390625,1759871594.085645,1759871594.102048
439,-8.7890625,-33.69140625,-39.0625,-16.11328125,1759871594.0906606,1759871594.1059542
440,-8.30078125,-31.73828125,-36.1328125,-11.23046875,1759871594.0956762,1759871594.1098604
441,-39.55078125,-33.203125,-34.66796875,-48.33984375,1759871594.1006918,1759871594.1137667
442,-41.9921875,-31.25,-39.0625,-79.58984375,1759871594.1057074,1759871594.117673
443,-10.7421875,-37.109375,-43.45703125,-44.921875,1759871594.110723,1759871594.1215792
444,2.44140625,-41.015625,-44.921875,-20.01953125,1759871594.1145208,1759871594.1254854
445,-21.484375,-37.59765625,-41.50390625,-40.0390625,1759871594.1183186,1759871594.1293917
446,-48.828125,-37.109375,-38.0859375,-61.5234375,1759871594.1221166,1759871594.133298
447,-33.69140625,-34.1796875,-41.015625,-43.9453125,1759871594.1259143,1759871594.1372042
448,-9.27734375,-36.1328125,-40.0390625,-6.8359375,1759871594.129712,1759871594.1411104
449,-38.0859375,-42.48046875,-37.59765625,-26.3671875,1759871594.13351,1759871594.1450167
450,-71.77734375,-41.50390625,-38.57421875,-56.15234375,1759871594.137308,1759871594.148923
451,-56.640625,-40.52734375,-40.52734375,-43.45703125,1759871594.1411057,1759871594.1528292
452,-28.3203125,-43.45703125,-45.41015625,-15.625,1759871594.1449034,1759871594.1567354
453,-35.15625,-46.875,-48.828125,-14.16015625,1759871594.1487012,1759871594.1606417
454,-73.2421875,-45.41015625,-49.31640625,-54.19921875,1759871594.1524992,1759871594.164548
455,-64.453125,-40.52734375,-53.22265625,-64.453125,1759871594.156297,1759871594.1684542
456,-20.01953125,-41.9921875,-53.22265625,-25.390625,1759871594.1600547,1759871594.1723604
457,-18.5546875,-39.55078125,-51.7578125,-18.06640625,1759871594.1638124,1759871594.1762667
458,-57.6171875,-39.55078125,-50.29296875,-58.59375,1759871594.16757,1759871594.180173
459,-61.5234375,-47.36328125,-57.12890625,-73.73046875,1759871594.1713276,1759871594.1840792
460,-35.15625,-48.33984375,-61.03515625,-47.36328125,1759871594.1750853,1759871594.1879854
461,-25.390625,-48.828125,-62.01171875,-27.34375,1759871594.178843,1759871594.1918917
462,-52.734375,-55.6640625,-63.96484375,-58.10546875,1759871594.1826007,1759871594.195798
463,-87.40234375,-58.10546875,-66.89453125,-83.984375,1759871594.1863585,1759871594.1997042
464,-57.12890625,-62.01171875,-65.4296875,-51.7578125,1759871594.1901162,1759871594.2036104
465,-23.92578125,-65.91796875,-64.453125,-14.6484375,1759871594.1938736,1759871594.2075167
466,-48.828125,-61.5234375,-64.94140625,-41.50390625,1759871594.1976314,1759871594.211423
467,-69.3359375,-60.05859375,-61.5234375,-79.1015625,1759871594.201389,1759871594.2153292
468,-52.734375,-63.96484375,-61.5234375,-70.3125,1759871594.205246,1759871594.2192354
469,-20.99609375,-62.5,-60.546875,-38.57421875,1759871594.209103,1759871594.2231417
470,-37.109375,-61.03515625,-61.5234375,-48.33984375,1759871594.21296,1759871594.227048
471,-70.80078125,-59.5703125,-61.5234375,-81.54296875,1759871594.2168171,1759871594.2309542
472,-54.6875,-61.5234375,-61.03515625,-69.82421875,1759871594.220674,1759871594.2348604
473,-19.53125,-65.4296875,-61.5234375,-26.85546875,1759871594.224531,1759871594.2387667
474,-20.5078125,-60.546875,-61.03515625,-14.6484375,1759871594.228388,1759871594.242673
475,-49.8046875,-57.12890625,-57.12890625,-55.17578125,1759871594.232245,1759871594.2465792
476,-36.1328125,-60.546875,-58.59375,-46.38671875,1759871594.236102,1759871594.2504854
477,-5.859375,-58.59375,-61.03515625,-12.6953125,1759871594.239959,1759871594.2543917
478,-18.06640625,-57.6171875,-55.17578125,-31.25,1759871594.2438161,1759871594.258298
479,-53.7109375,-66.40625,-60.546875,-65.4296875,1759871594.247673,1759871594.2622042
480,-73.73046875,-60.546875,-61.03515625,-99.12109375,1759871594.251248,1759871594.2661104
481,-63.4765625,-55.17578125,-54.19921875,-93.75,1759871594.2548227,1759871594.2700167
482,-43.9453125,-56.15234375,-54.6875,-61.03515625,1759871594.2583976,1759871594.273923
483,-67.87109375,-55.17578125,-52.734375,-75.68359375,1759871594.2619724,1759871594.2778292
484,-111.328125,-60.546875,-49.31640625,-117.1875,1759871594.2655473,1759871594.2817354
485,-104.98046875,-62.01171875,-44.921875,-111.81640625,1759871594.269122,1759871594.2856417
486,-67.3828125,-59.5703125,-46.875,-73.2421875,1759871594.2726967,1759871594.289548
487,-76.171875,-62.5,-46.875,-77.1484375,1759871594.2762716,1759871594.2934542
488,-123.046875,-71.2890625,-35.15625,-106.4453125,1759871594.2798464,1759871594.2973604
489,-129.39453125,-73.73046875,-32.2265625,-122.55859375,1759871594.2834213,1759871594.3012667
490,-95.21484375,-74.21875,-31.25,-111.328125,1759871594.2869961,1759871594.305173
491,-90.8203125,-78.125,-29.78515625,-95.21484375,1759871594.290571,1759871594.3090792
492,-118.1640625,-73.73046875,-29.78515625,-124.51171875,1759871594.2944047,1759871594.3129854
493,-132.8125,-70.80078125,-29.296875,-150.87890625,1759871594.2982383,1759871594.3168917
494,-99.609375,-72.265625,-30.76171875,-117.1875,1759871594.302072,1759871594.320798
495,-82.51953125,-74.70703125,-34.66796875,-83.49609375,1759871594.3059056,1759871594.3247042
496,-104.98046875,-71.2890625,-36.1328125,-106.93359375,1759871594.3097394,1759871594.3286104
497,-111.328125,-64.453125,-33.69140625,-125.48828125,1759871594.3135731,1759871594.3325167
498,-75.1953125,-60.05859375,-29.78515625,-98.14453125,1759871594.3174067,1759871594.336423
499,-38.57421875,-60.546875,-31.25,-50.29296875,1759871594.3212404,1759871594.3403292
500,-64.453125,-66.40625,-38.57421875,-55.6640625,1759871594.325074,1759871594.3442354
501,-90.8203125,-64.94140625,-41.015625,-95.703125,1759871594.3289077,1759871594.3481417
502,-71.2890625,-64.94140625,-42.96875,-75.68359375,1759871594.3327413,1759871594.352048
503,-40.0390625,-68.84765625,-43.9453125,-38.0859375,1759871594.336575,1759871594.3559542
504,-39.0625,-64.94140625,-43.9453125,-51.7578125,1759871594.3402205,1759871594.3598604
505,-65.4296875,-57.6171875,-42.48046875,-91.30859375,1759871594.343866,1759871594.3637667
506,-64.94140625,-58.59375,-36.1328125,-87.890625,1759871594.3475115,1759871594.367673
507,-30.76171875,-58.10546875,-39.0625,-43.45703125,1759871594.351157,1759871594.3715792
508,-21.97265625,-52.734375,-44.921875,-25.390625,1759871594.3548026,1759871594.3754854
509,-50.78125,-53.7109375,-39.0625,-49.8046875,1759871594.358448,1759871594.3793917
510,-61.03515625,-57.12890625,-41.50390625,-73.73046875,1759871594.3620934,1759871594.383298
511,-28.80859375,-53.7109375,-42.96875,-47.36328125,1759871594.365739,1759871594.3872042
512,-1.46484375,-43.9453125,-38.0859375,-7.32421875,1759871594.3693845,1759871594.3911104
513,-30.2734375,-41.015625,-40.52734375,-39.0625,1759871594.37303,1759871594.3950167
514,-53.22265625,-38.0859375,-40.0390625,-80.078125,1759871594.3766756,1759871594.398923
515,-29.296875,-41.50390625,-37.59765625,-54.19921875,1759871594.380321,1759871594.4028292
516,-2.44140625,-42.48046875,-34.66796875,-10.7421875,1759871594.3840435,1759871594.4067354
517,-23.92578125,-46.38671875,-33.69140625,-23.4375,1759871594.3877656,1759871594.4106417
518,-53.7109375,-54.19921875,-37.59765625,-71.77734375,1759871594.391488,1759871594.414548
519,-33.69140625,-48.828125,-37.59765625,-60.05859375,1759871594.3952103,1759871594.4184542
520,-2.9296875,-41.015625,-38.0859375,-12.20703125,1759871594.3989327,1759871594.4223604
521,-2.9296875,-40.52734375,-38.57421875,-8.7890625,1759871594.4026551,1759871594.4262667
522,-31.25,-43.9453125,-39.0625,-33.69140625,1759871594.4063773,1759871594.430173
523,-41.015625,-41.9921875,-44.921875,-38.57421875,1759871594.4100997,1759871594.4340792
524,-11.71875,-40.52734375,-42.96875,-12.6953125,1759871594.413822,1759871594.4379854
525,-4.8828125,-41.50390625,-36.1328125,5.859375,1759871594.4175444,1759871594.4418917
526,-33.203125,-44.43359375,-35.15625,-23.4375,1759871594.4212666,1759871594.445798
527,-46.875,-51.26953125,-38.57421875,-43.9453125,1759871594.424989,1759871594.4497042
528,-19.04296875,-54.19921875,-38.0859375,-22.4609375,1759871594.4299405,1759871594.4536104
529,4.8828125,-58.59375,-32.2265625,7.32421875,1759871594.434892,1759871594.4575167
530,-30.2734375,-61.5234375,-33.69140625,-18.5546875,1759871594.4398434,1759871594.461423
531,-59.08203125,-56.15234375,-34.1796875,-52.24609375,1759871594.444795,1759871594.4653292
532,-39.0625,-56.640625,-36.62109375,-37.59765625,1759871594.4497464,1759871594.4692354
533,-2.44140625,-61.5234375,-47.36328125,-2.9296875,1759871594.4546978,1759871594.4731417
534,-13.671875,-61.5234375,-55.6640625,-12.20703125,1759871594.4596496,1759871594.477048
535,-54.19921875,-62.98828125,-50.78125,-49.8046875,1759871594.464601,1759871594.4809542
536,-47.36328125,-64.453125,-43.9453125,-47.36328125,1759871594.4695525,1759871594.4848604
537,-5.37109375,-62.98828125,-43.45703125,-9.765625,1759871594.474504,1759871594.4887667
538,-10.25390625,-68.359375,-41.9921875,-7.32421875,1759871594.4794555,1759871594.492673
539,-47.36328125,-69.82421875,-39.55078125,-48.33984375,1759871594.484407,1759871594.4965792
540,-48.828125,-70.3125,-43.9453125,-64.94140625,1759871594.4882376,1759871594.5004854
541,-20.5078125,-71.77734375,-49.31640625,-26.85546875,1759871594.492068,1759871594.5043917
542,-11.71875,-65.91796875,-40.0390625,5.37109375,1759871594.4958987,1759871594.508298
543,-41.50390625,-62.01171875,-34.66796875,-31.73828125,1759871594.4997294,1759871594.5122042
544,-56.15234375,-62.01171875,-39.55078125,-54.6875,1759871594.5035598,1759871594.5161104
545,-29.78515625,-62.98828125,-33.203125,-20.01953125,1759871594.5073905,1759871594.5200167
546,-3.90625,-63.4765625,-35.64453125,18.5546875,1759871594.5112212,1759871594.523923
547,-23.92578125,-57.12890625,-43.9453125,-19.04296875,1759871594.5150516,1759871594.5278292
548,-53.7109375,-58.10546875,-48.828125,-76.66015625,1759871594.5188823,1759871594.5317354
549,-35.64453125,-63.4765625,-51.7578125,-59.5703125,1759871594.522713,1759871594.5356417
550,-7.8125,-58.59375,-45.8984375,-11.71875,1759871594.5265434,1759871594.539548
551,-26.85546875,-54.19921875,-47.36328125,-11.23046875,1759871594.530374,1759871594.5434542
552,-60.546875,-54.6875,-50.29296875,-40.52734375,1759871594.5343192,1759871594.5473604
553,-45.41015625,-52.24609375,-49.31640625,-43.9453125,1759871594.5382643,1759871594.5512667
554,-9.765625,-49.8046875,-51.26953125,-19.04296875,1759871594.5422091,1759871594.555173
555,-4.8828125,-43.9453125,-46.38671875,-9.27734375,1759871594.5461543,1759871594.5590792
556,-28.80859375,-43.45703125,-43.45703125,-35.64453125,1759871594.5500994,1759871594.5629854
557,-43.9453125,-51.7578125,-44.43359375,-41.015625,1759871594.5540445,1759871594.5668917
558,-18.06640625,-47.36328125,-40.52734375,-15.625,1759871594.5579896,1759871594.570798
559,-3.90625,-45.41015625,-37.109375,-3.41796875,1759871594.5619347,1759871594.5747042
560,-35.64453125,-48.33984375,-40.52734375,-27.34375,1759871594.5658796,1759871594.5786104
561,-54.6875,-48.828125,-45.41015625,-43.45703125,1759871594.5698247,1759871594.5825167
562,-24.90234375,-50.78125,-43.45703125,-25.87890625,1759871594.5737698,1759871594.586423
563,-2.9296875,-48.828125,-45.41015625,0.48828125,1759871594.577715,1759871594.5903292
564,-25.390625,-43.9453125,-47.36328125,-20.99609375,1759871594.5814734,1759871594.5942354
565,-52.24609375,-42.96875,-40.0390625,-55.6640625,1759871594.5852318,1759871594.5981417
566,-39.0625,-42.48046875,-34.1796875,-39.55078125,1759871594.5889902,1759871594.602048
567,0.48828125,-40.52734375,-36.1328125,4.39453125,1759871594.5927486,1759871594.6059542
568,-6.8359375,-44.43359375,-38.57421875,-1.46484375,1759871594.596507,1759871594.6098604
569,-52.734375,-48.828125,-42.48046875,-47.36328125,1759871594.6002655,1759871594.6137667
570,-48.828125,-49.31640625,-46.38671875,-55.6640625,1759871594.604024,1759871594.617673
571,-2.9296875,-48.33984375,-50.29296875,-16.11328125,1759871594.6077824,1759871594.6215792
572,-0.9765625,-56.15234375,-48.33984375,13.671875,1759871594.6115408,1759871594.6254854
573,-35.15625,-57.6171875,-43.45703125,-18.06640625,1759871594.6152992,1759871594.6293917
574,-42.48046875,-51.26953125,-45.8984375,-62.01171875,1759871594.6190577,1759871594.633298
575,-22.94921875,-52.24609375,-52.734375,-49.31640625,1759871594.622816,1759871594.6372042
576,-6.8359375,-52.24609375,-52.24609375,-16.11328125,1759871594.6265283,1759871594.6411104
577,-30.2734375,-54.6875,-48.33984375,-29.78515625,1759871594.6302404,1759871594.6450167
578,-52.734375,-53.22265625,-45.41015625,-69.3359375,1759871594.6339529,1759871594.648923
579,-25.390625,-49.8046875,-47.8515625,-53.22265625,1759871594.637665,1759871594.6528292
580,3.90625,-42.96875,-44.43359375,-13.671875,1759871594.6413772,1759871594.6567354
581,-18.06640625,-46.875,-40.0390625,-27.83203125,1759871594.6450896,1759871594.6606417
582,-54.6875,-55.17578125,-42.96875,-59.5703125,1759871594.6488018,1759871594.664548
583,-46.875,-51.7578125,-41.9921875,-53.7109375,1759871594.652514,1759871594.6684542
584,-9.27734375,-51.7578125,-44.43359375,-10.25390625,1759871594.6562262,1759871594.6723604
585,-19.04296875,-50.78125,-45.41015625,-10.7421875,1759871594.6599383,1759871594.6762667
586,-58.59375,-56.15234375,-49.31640625,-60.05859375,1759871594.6636508,1759871594.680173
587,-60.546875,-62.5,-54.19921875,-70.80078125,1759871594.667363,1759871594.6840792
588,-31.73828125,-61.03515625,-54.6875,-41.015625,1759871594.671094,1759871594.6879854
589,-24.4140625,-59.08203125,-56.640625,-31.25,1759871594.674825,1759871594.6918917
590,-60.546875,-62.98828125,-59.08203125,-67.3828125,1759871594.678556,1759871594.695798
591,-70.80078125,-70.3125,-61.5234375,-90.8203125,1759871594.682287,1759871594.6997042
592,-46.38671875,-71.2890625,-62.01171875,-62.01171875,1759871594.686018,1759871594.7036104
593,-21.97265625,-69.3359375,-64.453125,-29.78515625,1759871594.689749,1759871594.7075167
594,-45.8984375,-68.84765625,-66.40625,-47.8515625,1759871594.69348,1759871594.711423
595,-77.1484375,-73.2421875,-65.4296875,-67.87109375,1759871594.697211,1759871594.7153292
596,-53.22265625,-74.70703125,-62.5,-65.91796875,1759871594.700942,1759871594.7192354
597,-30.2734375,-68.359375,-62.98828125,-52.24609375,1759871594.704673,1759871594.7231417
598,-46.38671875,-62.98828125,-64.453125,-47.36328125,1759871594.708404,1759871594.727048
599,-79.58984375,-62.01171875,-60.05859375,-62.98828125,1759871594.712135,1759871594.7309542
600,-68.359375,-57.6171875,-57.6171875,-58.10546875,1759871594.7157214,1759871594.7348604
601,-25.87890625,-53.22265625,-59.5703125,-39.0625,1759871594.7193077,1759871594.7387667
602,-29.78515625,-59.5703125,-62.5,-49.31640625,1759871594.722894,1759871594.742673
603,-66.89453125,-63.4765625,-63.96484375,-74.21875,1759871594.7264805,1759871594.7465792
604,-72.75390625,-58.59375,-61.5234375,-72.75390625,1759871594.7300668,1759871594.7504854
605,-31.73828125,-54.19921875,-59.08203125,-40.52734375,1759871594.733653,1759871594.7543917
606,-10.7421875,-53.22265625,-56.640625,-17.08984375,1759871594.7372394,1759871594.758298
607,-48.33984375,-55.6640625,-52.734375,-41.015625,1759871594.7408257,1759871594.7622042
608,-71.77734375,-54.6875,-54.6875,-74.70703125,1759871594.744412,1759871594.7661104
609,-50.78125,-53.22265625,-56.15234375,-60.546875,1759871594.7479985,1759871594.7700167
610,-24.90234375,-55.17578125,-55.17578125,-23.4375,1759871594.7515848,1759871594.773923
611,-47.36328125,-59.5703125,-57.12890625,-38.57421875,1759871594.755171,1759871594.7778292
612,-82.03125,-57.12890625,-60.05859375,-71.2890625,1759871594.7590249,1759871594.7817354
613,-52.734375,-52.734375,-58.59375,-64.94140625,1759871594.7628787,1759871594.7856417
614,-7.8125,-57.6171875,-62.5,-41.50390625,1759871594.7667325,1759871594.789548
615,-24.90234375,-58.10546875,-62.5,-40.0390625,1759871594.7705865,1759871594.7934542
616,-68.359375,-55.6640625,-52.24609375,-77.1484375,1759871594.7744403,1759871594.7973604
617,-62.5,-57.6171875,-49.31640625,-91.796875,1759871594.778294,1759871594.8012667
618,-28.3203125,-61.5234375,-56.640625,-45.8984375,1759871594.782148,1759871594.805173
619,-27.34375,-66.40625,-62.01171875,-26.85546875,1759871594.7860017,1759871594.8090792
620,-59.08203125,-58.10546875,-56.640625,-66.89453125,1759871594.7898555,1759871594.8129854
621,-68.84765625,-52.24609375,-52.734375,-77.1484375,1759871594.7937095,1759871594.8168917
622,-35.15625,-55.6640625,-50.78125,-38.0859375,1759871594.7975633,1759871594.820798
623,-23.4375,-60.05859375,-47.36328125,-11.71875,1759871594.801417,1759871594.8247042
624,-47.36328125,-55.17578125,-48.828125,-46.38671875,1759871594.80632,1759871594.8286104
625,-59.5703125,-50.78125,-49.8046875,-71.77734375,1759871594.811223,1759871594.8325167
626,-41.9921875,-54.6875,-53.7109375,-46.38671875,1759871594.8161259,1759871594.836423
627,-8.30078125,-56.15234375,-54.19921875,-13.671875,1759871594.8210287,1759871594.8403292
628,-23.92578125,-52.734375,-47.36328125,-24.4140625,1759871594.8259315,1759871594.8442354
629,-65.4296875,-52.734375,-45.8984375,-63.96484375,1759871594.8308344,1759871594.8481417
630,-52.24609375,-57.6171875,-45.41015625,-55.17578125,1759871594.8357375,1759871594.852048
631,-9.765625,-48.33984375,-40.52734375,-6.8359375,1759871594.8406403,1759871594.8559542
632,-17.578125,-45.8984375,-43.45703125,-13.671875,1759871594.8455431,1759871594.8598604
633,-60.546875,-54.19921875,-48.33984375,-54.19921875,1759871594.8504462,1759871594.8637667
634,-62.5,-53.22265625,-50.78125,-57.6171875,1759871594.855349,1759871594.867673
635,-20.5078125,-53.7109375,-48.828125,-28.3203125,1759871594.860252,1759871594.8715792
636,-20.5078125,-59.08203125,-42.96875,-13.18359375,1759871594.8640192,1759871594.8754854
637,-60.546875,-54.6875,-42.48046875,-46.875,1759871594.8677862,1759871594.8793917
638,-63.4765625,-49.31640625,-43.9453125,-68.359375,1759871594.8715534,1759871594.883298
639,-32.2265625,-52.734375,-48.828125,-42.48046875,1759871594.8753207,1759871594.8872042
640,-9.27734375,-50.78125,-45.41015625,-18.5546875,1759871594.8790877,1759871594.8911104
641,-34.1796875,-50.78125,-44.921875,-30.2734375,1759871594.882855,1759871594.8950167
642,-62.01171875,-53.22265625,-52.24609375,-54.19921875,1759871594.8866222,1759871594.898923
643,-41.015625,-49.8046875,-51.7578125,-44.43359375,1759871594.8903892,1759871594.9028292
644,-16.11328125,-51.26953125,-45.8984375,-8.7890625,1759871594.8941565,1759871594.9067354
645,-27.83203125,-50.78125,-43.45703125,-21.97265625,1759871594.8979237,1759871594.9106417
646,-61.03515625,-46.875,-41.9921875,-60.05859375,1759871594.9016907,1759871594.914548
647,-52.24609375,-46.875,-40.52734375,-52.734375,1759871594.905458,1759871594.9184542
648,-17.08984375,-51.26953125,-45.41015625,-15.13671875,1759871594.909204,1759871594.9223604
649,-26.3671875,-44.43359375,-43.9453125,-2.44140625,1759871594.9129498,1759871594.9262667
650,-64.453125,-42.48046875,-47.8515625,-46.875,1759871594.9166956,1759871594.930173
651,-70.3125,-46.875,-51.7578125,-73.2421875,1759871594.9204416,1759871594.9340792
652,-28.3203125,-44.921875,-54.19921875,-39.0625,1759871594.9241877,1759871594.9379854
653,-15.625,-42.96875,-52.24609375,-17.578125,1759871594.9279335,1759871594.9418917
654,-54.6875,-45.41015625,-45.8984375,-38.0859375,1759871594.9316792,1759871594.945798
655,-69.3359375,-44.921875,-46.875,-54.19921875,1759871594.9354253,1759871594.9497042
656,-40.52734375,-43.9453125,-47.8515625,-27.34375,1759871594.9391713,1759871594.9536104
657,-15.13671875,-44.921875,-50.78125,-12.20703125,1759871594.942917,1759871594.9575167
658,-42.48046875,-40.52734375,-55.6640625,-60.546875,1759871594.946663,1759871594.961423
659,-73.73046875,-47.8515625,-58.10546875,-89.84375,1759871594.950409,1759871594.9653292
660,-53.7109375,-55.17578125,-55.17578125,-69.3359375,1759871594.954161,1759871594.9692354
661,-25.87890625,-52.24609375,-52.734375,-40.52734375,1759871594.9579127,1759871594.9731417
662,-42.96875,-49.31640625,-53.22265625,-49.8046875,1759871594.9616647,1759871594.977048
663,-79.58984375,-48.828125,-50.29296875,-80.078125,1759871594.9654167,1759871594.9809542
664,-72.265625,-48.33984375,-48.33984375,-75.1953125,1759871594.9691684,1759871594.9848604
665,-38.0859375,-47.8515625,-49.31640625,-34.1796875,1759871594.9729204,1759871594.9887667
666,-38.57421875,-48.828125,-48.828125,-22.4609375,1759871594.9766724,1759871594.992673
667,-79.1015625,-47.36328125,-51.7578125,-62.01171875,1759871594.9804242,1759871594.9965792
668,-76.171875,-48.33984375,-60.05859375,-67.87109375,1759871594.9841762,1759871595.0004854
669,-42.48046875,-45.41015625,-56.15234375,-29.296875,1759871594.9879282,1759871595.0043917
670,-43.45703125,-36.62109375,-53.22265625,-20.5078125,1759871594.99168,1759871595.008298
671,-71.2890625,-37.109375,-55.6640625,-54.19921875,1759871594.995432,1759871595.0122042
672,-80.078125,-36.1328125,-45.8984375,-76.171875,1759871594.999248,1759871595.0161104
673,-52.734375,-36.62109375,-42.48046875,-51.7578125,1759871595.0030642,1759871595.0200167
674,-30.2734375,-34.1796875,-41.015625,-12.20703125,1759871595.0068803,1759871595.023923
675,-49.8046875,-31.73828125,-42.48046875,-21.484375,1759871595.0106966,1759871595.0278292
676,-65.4296875,-31.73828125,-49.31640625,-58.10546875,1759871595.0145128,1759871595.0317354
677,-41.50390625,-28.80859375,-47.36328125,-44.43359375,1759871595.018329,1759871595.0356417
678,-27.83203125,-26.85546875,-47.36328125,-14.16015625,1759871595.022145,1759871595.039548
679,-46.38671875,-22.94921875,-50.78125,-19.53125,1759871595.0259612,1759871595.0434542
680,-71.2890625,-24.4140625,-53.7109375,-49.8046875,1759871595.0297773,1759871595.0473604
681,-70.80078125,-27.34375,-52.734375,-65.4296875,1759871595.0335937,1759871595.0512667
682,-34.66796875,-30.2734375,-54.6875,-47.36328125,1759871595.0374098,1759871595.055173
683,-37.109375,-33.69140625,-58.59375,-31.73828125,1759871595.041226,1759871595.0590792
684,-67.87109375,-29.78515625,-56.640625,-50.78125,1759871595.0448763,1759871595.0629854
685,-69.3359375,-25.390625,-54.6875,-61.5234375,1759871595.048527,1759871595.0668917
686,-51.26953125,-34.66796875,-58.10546875,-37.109375,1759871595.0521774,1759871595.070798
687,-36.1328125,-37.59765625,-62.01171875,-24.90234375,1759871595.0558279,1759871595.0747042
688,-57.12890625,-35.15625,-62.98828125,-56.640625,1759871595.0594785,1759871595.0786104
689,-77.1484375,-36.62109375,-59.08203125,-76.66015625,1759871595.063129,1759871595.0825167
690,-57.12890625,-38.0859375,-59.5703125,-61.03515625,1759871595.0667794,1759871595.086423
691,-35.64453125,-34.1796875,-61.5234375,-20.5078125,1759871595.07043,1759871595.0903292
692,-57.12890625,-32.2265625,-61.5234375,-35.64453125,1759871595.0740805,1759871595.0942354
693,-89.84375,-36.1328125,-59.5703125,-71.77734375,1759871595.077731,1759871595.0981417
694,-71.2890625,-35.64453125,-59.08203125,-57.12890625,1759871595.0813816,1759871595.102048
695,-33.203125,-37.59765625,-60.546875,-31.73828125,1759871595.085032,1759871595.1059542
696,-50.78125,-41.50390625,-61.03515625,-40.0390625,1759871595.0888443,1759871595.1098604
697,-77.63671875,-38.57421875,-60.546875,-74.70703125,1759871595.0926566,1759871595.1137667
698,-63.96484375,-39.55078125,-57.12890625,-76.66015625,1759871595.096469,1759871595.117673
699,-31.73828125,-44.921875,-56.15234375,-45.8984375,1759871595.1002812,1759871595.1215792
700,-39.55078125,-42.96875,-60.546875,-35.15625,1759871595.1040936,1759871595.1254854
701,-71.77734375,-38.57421875,-58.59375,-61.5234375,1759871595.107906,1759871595.1293917
702,-64.94140625,-33.69140625,-48.828125,-65.91796875,1759871595.1117184,1759871595.133298
703,-34.1796875,-36.1328125,-49.8046875,-33.69140625,1759871595.1155307,1759871595.1372042
704,-20.01953125,-34.1796875,-48.828125,-17.578125,1759871595.119343,1759871595.1411104
705,-45.41015625,-29.78515625,-43.45703125,-41.9921875,1759871595.1231554,1759871595.1450167
706,-70.80078125,-37.109375,-44.43359375,-58.59375,1759871595.1269677,1759871595.148923
707,-58.10546875,-41.015625,-49.31640625,-39.0625,1759871595.13078,1759871595.1528292
708,-29.296875,-37.109375,-51.26953125,-8.7890625,1759871595.1345696,1759871595.1567354
709,-38.0859375,-39.0625,-52.24609375,-30.2734375,1759871595.1383593,1759871595.1606417
710,-67.87109375,-41.015625,-49.31640625,-65.91796875,1759871595.142149,1759871595.164548
711,-58.59375,-40.0390625,-50.29296875,-59.08203125,1759871595.1459386,1759871595.1684542
712,-34.66796875,-41.015625,-53.7109375,-29.78515625,1759871595.1497283,1759871595.1723604
713,-42.48046875,-46.875,-59.08203125,-30.76171875,1759871595.153518,1759871595.1762667
714,-73.2421875,-55.17578125,-59.08203125,-62.98828125,1759871595.1573076,1759871595.180173
715,-73.73046875,-48.33984375,-55.6640625,-62.5,1759871595.1610973,1759871595.1840792
716,-42.48046875,-45.41015625,-59.08203125,-30.2734375,1759871595.164887,1759871595.1879854
717,-32.71484375,-46.875,-61.5234375,-9.27734375,1759871595.1686766,1759871595.1918917
718,-60.546875,-47.36328125,-56.15234375,-42.96875,1759871595.1724663,1759871595.195798
719,-70.3125,-48.828125,-56.640625,-88.8671875,1759871595.176256,1759871595.1997042
720,-44.921875,-47.36328125,-56.15234375,-63.4765625,1759871595.181159,1759871595.2036104
721,-17.578125,-48.828125,-50.29296875,-14.6484375,1759871595.186062,1759871595.2075167
722,-34.1796875,-43.45703125,-52.734375,-33.69140625,1759871595.1909652,1759871595.211423
723,-59.08203125,-39.0625,-56.640625,-71.77734375,1759871595.1958683,1759871595.2153292
724,-29.78515625,-40.52734375,-57.12890625,-60.546875,1759871595.2007713,1759871595.2192354
725,2.44140625,-39.55078125,-59.5703125,-27.83203125,1759871595.2056744,1759871595.2231417
726,-24.4140625,-43.9453125,-62.5,-25.390625,1759871595.2105777,1759871595.227048
727,-60.05859375,-45.41015625,-60.546875,-56.15234375,1759871595.2154808,1759871595.2309542
728,-48.828125,-42.96875,-57.12890625,-60.546875,1759871595.220384,1759871595.2348604
729,-17.578125,-46.875,-55.6640625,-20.5078125,1759871595.225287,1759871595.2387667
730,-18.5546875,-47.8515625,-50.78125,-1.46484375,1759871595.23019,1759871595.242673
731,-56.640625,-45.8984375,-50.78125,-32.71484375,1759871595.235093,1759871595.2465792
732,-70.80078125,-50.78125,-52.734375,-49.31640625,1759871595.2388382,1759871595.2504854
733,-36.1328125,-51.7578125,-49.8046875,-17.08984375,1759871595.242583,1759871595.2543917
734,-14.6484375,-45.8984375,-46.38671875,-2.9296875,1759871595.246328,1759871595.258298
735,-50.78125,-48.33984375,-49.31640625,-48.828125,1759871595.2500732,1759871595.2622042
736,-69.3359375,-54.19921875,-51.7578125,-65.91796875,1759871595.253818,1759871595.2661104
737,-42.48046875,-57.6171875,-56.15234375,-38.57421875,1759871595.257563,1759871595.2700167
738,-20.5078125,-55.6640625,-52.734375,-22.4609375,1759871595.2613082,1759871595.273923
739,-42.96875,-50.29296875,-47.36328125,-38.0859375,1759871595.265053,1759871595.2778292
740,-81.0546875,-51.7578125,-50.78125,-72.75390625,1759871595.268798,1759871595.2817354
741,-60.05859375,-54.6875,-59.5703125,-55.6640625,1759871595.2725432,1759871595.2856417
742,-19.53125,-55.17578125,-62.01171875,-10.25390625,1759871595.276288,1759871595.289548
743,-32.71484375,-53.22265625,-54.6875,-9.27734375,1759871595.280033,1759871595.2934542
744,-67.3828125,-55.6640625,-55.6640625,-39.0625,1759871595.2837648,1759871595.2973604
745,-66.89453125,-50.78125,-60.546875,-52.24609375,1759871595.2874968,1759871595.3012667
746,-28.80859375,-49.31640625,-59.5703125,-28.3203125,1759871595.2912285,1759871595.305173
747,-13.671875,-50.29296875,-54.19921875,-19.04296875,1759871595.2949605,1759871595.3090792
748,-49.31640625,-50.78125,-56.15234375,-60.05859375,1759871595.2986922,1759871595.3129854
749,-54.6875,-50.29296875,-62.5,-70.80078125,1759871595.302424,1759871595.3168917
750,-20.5078125,-43.45703125,-60.546875,-31.25,1759871595.306156,1759871595.320798
751,-15.625,-46.875,-54.6875,-8.7890625,1759871595.3098876,1759871595.3247042
752,-49.8046875,-51.7578125,-58.59375,-41.50390625,1759871595.3136196,1759871595.3286104
753,-65.91796875,-48.33984375,-62.98828125,-64.453125,1759871595.3173513,1759871595.3325167
754,-36.1328125,-40.52734375,-55.17578125,-47.8515625,1759871595.3210833,1759871595.336423
755,-11.71875,-40.0390625,-51.7578125,-15.625,1759871595.324815,1759871595.3403292
756,-30.2734375,-41.9921875,-56.15234375,-31.73828125,1759871595.3287268,1759871595.3442354
757,-61.03515625,-36.1328125,-57.12890625,-70.80078125,1759871595.3326385,1759871595.3481417
758,-48.33984375,-36.1328125,-50.78125,-63.4765625,1759871595.3365502,1759871595.352048
759,-11.71875,-43.45703125,-48.828125,-35.64453125,1759871595.340462,1759871595.3559542
760,-17.08984375,-42.96875,-48.828125,-30.2734375,1759871595.3443737,1759871595.3598604
761,-43.45703125,-39.0625,-47.8515625,-56.15234375,1759871595.3482854,1759871595.3637667
762,-47.36328125,-41.50390625,-50.29296875,-66.89453125,1759871595.3521974,1759871595.367673
763,-15.13671875,-48.828125,-50.29296875,-29.78515625,1759871595.3561091,1759871595.3715792
764,-10.7421875,-54.19921875,-54.6875,-1.46484375,1759871595.3600209,1759871595.3754854
765,-52.734375,-58.59375,-57.6171875,-33.203125,1759871595.3639326,1759871595.3793917
766,-61.03515625,-54.19921875,-56.15234375,-63.4765625,1759871595.3678443,1759871595.383298
767,-27.34375,-49.8046875,-59.08203125,-39.55078125,1759871595.371756,1759871595.3872042
768,-11.71875,-53.22265625,-59.5703125,-9.27734375,1759871595.37535,1759871595.3911104
769,-41.50390625,-49.8046875,-55.6640625,-33.69140625,1759871595.378944,1759871595.3950167
770,-60.546875,-47.36328125,-55.17578125,-60.05859375,1759871595.3825378,1759871595.398923
771,-31.25,-48.828125,-60.05859375,-42.48046875,1759871595.3861318,1759871595.4028292
772,-8.7890625,-51.26953125,-61.5234375,-23.4375,1759871595.3897257,1759871595.4067354
773,-29.296875,-51.7578125,-58.59375,-37.59765625,1759871595.3933194,1759871595.4106417
774,-54.6875,-46.875,-53.22265625,-66.89453125,1759871595.3969133,1759871595.414548
775,-41.9921875,-49.8046875,-54.6875,-48.828125,1759871595.4005072,1759871595.4184542
776,-13.671875,-55.6640625,-57.6171875,-2.44140625,1759871595.4041011,1759871595.4223604
777,-26.3671875,-49.31640625,-52.24609375,1.953125,1759871595.407695,1759871595.4262667
778,-59.5703125,-48.828125,-53.22265625,-45.41015625,1759871595.411289,1759871595.430173
779,-48.828125,-55.17578125,-55.6640625,-62.5,1759871595.414883,1759871595.4340792
780,-24.4140625,-54.6875,-60.05859375,-26.85546875,1759871595.4186342,1759871595.4379854
781,-12.20703125,-48.828125,-53.22265625,-12.6953125,1759871595.4223852,1759871595.4418917
782,-36.62109375,-42.96875,-41.50390625,-44.921875,1759871595.4261365,1759871595.445798
783,-52.734375,-43.45703125,-43.9453125,-57.12890625,1759871595.4298875,1759871595.4497042
784,-19.04296875,-47.8515625,-47.36328125,-26.85546875,1759871595.4336388,1759871595.4536104
785,-2.44140625,-47.36328125,-51.26953125,-10.7421875,1759871595.43739,1759871595.4575167
786,-31.73828125,-48.828125,-55.17578125,-41.50390625,1759871595.4411411,1759871595.461423
787,-49.31640625,-48.828125,-51.7578125,-54.6875,1759871595.4448924,1759871595.4653292
788,-27.34375,-43.45703125,-44.43359375,-38.0859375,1759871595.4486434,1759871595.4692354
789,-3.90625,-39.55078125,-47.8515625,-23.4375,1759871595.4523947,1759871595.4731417
790,-17.578125,-44.43359375,-57.12890625,-32.71484375,1759871595.4561458,1759871595.477048
791,-48.33984375,-49.8046875,-60.05859375,-70.80078125,1759871595.459897,1759871595.4809542
792,-36.62109375,-51.7578125,-57.12890625,-63.96484375,1759871595.4638245,1759871595.4848604
793,-8.30078125,-49.8046875,-50.78125,-35.15625,1759871595.467752,1759871595.4887667
794,-17.578125,-49.8046875,-53.7109375,-33.203125,1759871595.4716794,1759871595.492673
795,-47.8515625,-52.734375,-62.01171875,-64.94140625,1759871595.475607,1759871595.4965792
796,-52.734375,-51.26953125,-61.5234375,-75.68359375,1759871595.4795344,1759871595.5004854
797,-18.06640625,-54.6875,-62.5,-40.52734375,1759871595.4834619,1759871595.5043917
798,-13.671875,-55.6640625,-62.01171875,-27.34375,1759871595.4873896,1759871595.508298
799,-46.875,-49.31640625,-57.6171875,-50.78125,1759871595.491317,1759871595.5122042
800,-60.546875,-47.36328125,-58.10546875,-73.73046875,1759871595.4952445,1759871595.5161104
801,-28.80859375,-48.828125,-55.6640625,-45.8984375,1759871595.499172,1759871595.5200167
802,-5.859375,-52.734375,-54.6875,-4.8828125,1759871595.5030994,1759871595.523923
803,-34.1796875,-56.15234375,-58.59375,-40.0390625,1759871595.507027,1759871595.5278292
804,-56.640625,-56.15234375,-61.03515625,-81.54296875,1759871595.5107937,1759871595.5317354
805,-38.0859375,-56.640625,-60.05859375,-63.96484375,1759871595.5145605,1759871595.5356417
806,-9.27734375,-52.734375,-54.6875,-25.390625,1759871595.5183272,1759871595.539548
807,-26.85546875,-53.7109375,-53.22265625,-23.4375,1759871595.522094,1759871595.5434542
808,-64.94140625,-55.17578125,-57.6171875,-63.96484375,1759871595.5258608,1759871595.5473604
809,-55.17578125,-56.15234375,-59.08203125,-66.89453125,1759871595.5296273,1759871595.5512667
810,-17.578125,-61.5234375,-59.08203125,-23.4375,1759871595.533394,1759871595.555173
811,-25.390625,-56.15234375,-57.12890625,-5.859375,1759871595.5371609,1759871595.5590792
812,-58.10546875,-49.31640625,-53.7109375,-47.36328125,1759871595.5409276,1759871595.5629854
813,-55.17578125,-52.24609375,-54.19921875,-69.82421875,1759871595.5446944,1759871595.5668917
814,-35.64453125,-48.33984375,-55.17578125,-34.1796875,1759871595.5484612,1759871595.570798
815,-30.2734375,-51.26953125,-53.22265625,-11.71875,1759871595.552228,1759871595.5747042
816,-41.9921875,-55.6640625,-57.6171875,-42.96875,1759871595.5572014,1759871595.5786104
817,-56.15234375,-55.6640625,-67.3828125,-64.94140625,1759871595.5621746,1759871595.5825167
818,-27.34375,-60.05859375,-67.87109375,-39.0625,1759871595.567148,1759871595.586423
819,-8.7890625,-64.453125,-59.5703125,-8.7890625,1759871595.5721214,1759871595.5903292
820,-36.1328125,-67.3828125,-51.7578125,-24.90234375,1759871595.5770946,1759871595.5942354
821,-53.7109375,-70.80078125,-51.7578125,-59.5703125,1759871595.582068,1759871595.5981417
822,-38.0859375,-74.70703125,-56.640625,-45.41015625,1759871595.5870414,1759871595.602048
823,-13.18359375,-73.2421875,-61.03515625,-11.23046875,1759871595.5920146,1759871595.6059542
824,-31.73828125,-70.80078125,-52.734375,-18.06640625,1759871595.596988,1759871595.6098604
825,-63.4765625,-75.68359375,-46.875,-50.78125,1759871595.6019614,1759871595.6137667
826,-48.828125,-71.77734375,-48.828125,-49.8046875,1759871595.6069345,1759871595.617673
827,-10.25390625,-60.546875,-42.48046875,-20.01953125,1759871595.611908,1759871595.6215792
828,-14.6484375,-59.5703125,-46.38671875,-9.765625,1759871595.6154845,1759871595.6254854
829,-52.734375,-57.12890625,-52.24609375,-45.8984375,1759871595.619061,1759871595.6293917
830,-59.08203125,-50.29296875,-47.36328125,-60.546875,1759871595.6226375,1759871595.633298
831,-29.78515625,-43.45703125,-39.0625,-27.83203125,1759871595.626214,1759871595.6372042
832,-13.18359375,-45.8984375,-38.57421875,-7.32421875,1759871595.6297905,1759871595.6411104
833,-44.43359375,-50.29296875,-41.015625,-31.73828125,1759871595.6333668,1759871595.6450167
834,-67.3828125,-50.29296875,-40.52734375,-51.26953125,1759871595.6369433,1759871595.648923
835,-34.1796875,-49.31640625,-39.0625,-26.85546875,1759871595.6405199,1759871595.6528292
836,-15.625,-45.8984375,-38.0859375,11.23046875,1759871595.6440964,1759871595.6567354
837,-43.9453125,-46.38671875,-44.921875,1.953125,1759871595.647673,1759871595.6606417
838,-58.10546875,-48.828125,-52.734375,-42.96875,1759871595.6512494,1759871595.664548
839,-44.43359375,-49.8046875,-52.24609375,-56.15234375,1759871595.654826,1759871595.6684542
840,-16.6015625,-51.26953125,-43.9453125,-26.3671875,1759871595.658737,1759871595.6723604
841,-21.97265625,-53.22265625,-45.8984375,-21.484375,1759871595.6626482,1759871595.6762667
842,-55.6640625,-53.22265625,-49.31640625,-48.828125,1759871595.6665592,1759871595.680173
843,-51.7578125,-56.15234375,-44.43359375,-55.6640625,1759871595.6704702,1759871595.6840792
844,-14.16015625,-54.6875,-46.875,-20.99609375,1759871595.6743815,1759871595.6879854
845,-11.23046875,-46.38671875,-48.828125,-0.9765625,1759871595.6782925,1759871595.6918917
846,-46.38671875,-45.8984375,-48.828125,-39.55078125,1759871595.6822035,1759871595.695798
847,-53.7109375,-43.9453125,-56.15234375,-60.546875,1759871595.6861148,1759871595.6997042
848,-24.4140625,-43.45703125,-60.546875,-22.94921875,1759871595.6900258,1759871595.7036104
849,-11.23046875,-47.36328125,-53.7109375,8.30078125,1759871595.6939368,1759871595.7075167
850,-41.9921875,-44.43359375,-49.31640625,-29.296875,1759871595.697848,1759871595.711423
851,-51.7578125,-40.0390625,-46.38671875,-64.453125,1759871595.701759,1759871595.7153292
852,-25.390625,-41.50390625,-45.41015625,-36.62109375,1759871595.7053852,1759871595.7192354
853,-9.27734375,-44.921875,-43.9453125,4.39453125,1759871595.7090113,1759871595.7231417
854,-30.76171875,-42.96875,-42.96875,-14.16015625,1759871595.7126374,1759871595.727048
855,-44.921875,-42.96875,-41.9921875,-48.828125,1759871595.7162633,1759871595.7309542
856,-29.296875,-43.45703125,-39.0625,-43.9453125,1759871595.7198894,1759871595.7348604
857,-2.44140625,-41.50390625,-42.96875,-2.44140625,1759871595.7235155,1759871595.7387667
858,0.0,-42.48046875,-39.55078125,4.8828125,1759871595.7271416,1759871595.742673
859,-37.109375,-44.43359375,-33.69140625,-41.015625,1759871595.7307677,1759871595.7465792
860,-43.9453125,-46.875,-36.62109375,-43.9453125,1759871595.7343938,1759871595.7504854
861,-12.20703125,-46.38671875,-38.57421875,-11.23046875,1759871595.7380197,1759871595.7543917
862,-15.625,-44.43359375,-36.62109375,0.48828125,1759871595.7416458,1759871595.758298
863,-39.55078125,-48.828125,-41.015625,-28.3203125,1759871595.745272,1759871595.7622042
864,-48.828125,-56.640625,-47.8515625,-47.8515625,1759871595.7490447,1759871595.7661104
865,-28.80859375,-60.546875,-50.29296875,-22.4609375,1759871595.7528176,1759871595.7700167
866,-4.39453125,-55.6640625,-54.19921875,-1.953125,1759871595.7565904,1759871595.773923
867,-26.3671875,-49.8046875,-48.828125,-23.92578125,1759871595.7603633,1759871595.7778292
868,-45.41015625,-49.8046875,-42.96875,-46.38671875,1759871595.764136,1759871595.7817354
869,-30.2734375,-49.31640625,-50.78125,-28.3203125,1759871595.7679088,1759871595.7856417
870,-19.04296875,-52.24609375,-55.17578125,-6.34765625,1759871595.7716818,1759871595.789548
871,-38.57421875,-49.31640625,-48.33984375,-13.18359375,1759871595.7754545,1759871595.7934542
872,-57.12890625,-46.38671875,-44.921875,-38.57421875,1759871595.7792275,1759871595.7973604
873,-46.875,-49.8046875,-46.38671875,-54.6875,1759871595.7830002,1759871595.8012667
874,-17.08984375,-47.8515625,-47.36328125,-35.15625,1759871595.7867732,1759871595.805173
875,-20.01953125,-47.36328125,-50.78125,-22.4609375,1759871595.790546,1759871595.8090792
876,-49.8046875,-46.38671875,-48.33984375,-57.12890625,1759871595.7943985,1759871595.8129854
877,-45.41015625,-44.921875,-48.33984375,-62.5,1759871595.7982512,1759871595.8168917
878,-27.34375,-49.31640625,-56.15234375,-23.92578125,1759871595.802104,1759871595.820798
879,-31.73828125,-48.33984375,-55.6640625,3.90625,1759871595.8059566,1759871595.8247042
880,-44.921875,-42.48046875,-49.31640625,-20.5078125,1759871595.8098092,1759871595.8286104
881,-54.6875,-41.50390625,-47.8515625,-54.19921875,1759871595.813662,1759871595.8325167
882,-40.52734375,-43.45703125,-49.8046875,-40.0390625,1759871595.8175147,1759871595.836423
883,-20.01953125,-50.29296875,-56.15234375,-9.765625,1759871595.8213673,1759871595.8403292
884,-38.0859375,-49.8046875,-58.10546875,-25.390625,1759871595.8252199,1759871595.8442354
885,-59.08203125,-42.96875,-49.8046875,-58.10546875,1759871595.8290725,1759871595.8481417
886,-41.015625,-43.9453125,-47.36328125,-46.38671875,1759871595.8329253,1759871595.852048
887,-12.6953125,-40.0390625,-42.96875,-7.8125,1759871595.836778,1759871595.8559542
888,-22.4609375,-42.48046875,-40.0390625,-3.41796875,1759871595.8403783,1759871595.8598604
889,-50.29296875,-43.9453125,-50.78125,-41.015625,1759871595.8439784,1759871595.8637667
890,-40.0390625,-41.9921875,-51.7578125,-48.33984375,1759871595.8475788,1759871595.867673
891,-9.27734375,-45.41015625,-48.33984375,-12.6953125,1759871595.851179,1759871595.8715792
892,-16.6015625,-49.8046875,-49.31640625,-2.44140625,1759871595.8547792,1759871595.8754854
893,-47.36328125,-57.12890625,-53.22265625,-37.59765625,1759871595.8583796,1759871595.8793917
894,-49.31640625,-53.7109375,-52.734375,-47.36328125,1759871595.8619797,1759871595.883298
895,-14.6484375,-49.31640625,-55.6640625,-16.11328125,1759871595.86558,1759871595.8872042
896,-9.765625,-52.24609375,-53.7109375,-14.16015625,1759871595.8691802,1759871595.8911104
897,-35.64453125,-50.78125,-43.9453125,-49.31640625,1759871595.8727806,1759871595.8950167
898,-47.36328125,-50.78125,-50.29296875,-66.40625,1759871595.8763807,1759871595.898923
899,-27.83203125,-49.31640625,-53.7109375,-41.50390625,1759871595.879981,1759871595.9028292
900,-4.39453125,-42.48046875,-42.48046875,-10.7421875,1759871595.8837287,1759871595.9067354
901,-26.3671875,-47.8515625,-42.48046875,-22.4609375,1759871595.8874764,1759871595.9106417
902,-51.26953125,-53.22265625,-48.33984375,-48.828125,1759871595.8912241,1759871595.914548
903,-34.66796875,-45.8984375,-47.8515625,-37.59765625,1759871595.894972,1759871595.9184542
904,-13.18359375,-44.43359375,-47.8515625,-9.27734375,1759871595.8987198,1759871595.9223604
905,-23.4375,-48.33984375,-51.7578125,-17.08984375,1759871595.9024675,1759871595.9262667
906,-54.19921875,-55.17578125,-54.6875,-44.921875,1759871595.9062152,1759871595.930173
907,-55.17578125,-52.734375,-54.6875,-46.875,1759871595.909963,1759871595.9340792
908,-24.4140625,-45.8984375,-50.29296875,-14.6484375,1759871595.9137106,1759871595.9379854
909,-23.92578125,-44.43359375,-47.36328125,0.9765625,1759871595.9174585,1759871595.9418917
910,-54.6875,-43.45703125,-51.7578125,-27.83203125,1759871595.9212062,1759871595.945798
911,-51.7578125,-45.8984375,-50.78125,-56.15234375,1759871595.924954,1759871595.9497042
912,-20.01953125,-51.26953125,-54.19921875,-44.43359375,1759871595.9299963,1759871595.9536104
913,-20.5078125,-53.22265625,-60.05859375,-20.01953125,1759871595.9350388,1759871595.9575167
914,-42.96875,-52.24609375,-53.7109375,-34.66796875,1759871595.9400811,1759871595.961423
915,-52.24609375,-54.19921875,-48.828125,-61.5234375,1759871595.9451237,1759871595.9653292
916,-37.109375,-52.24609375,-48.828125,-48.828125,1759871595.950166,1759871595.9692354
917,-16.6015625,-50.29296875,-52.24609375,-12.20703125,1759871595.9552085,1759871595.9731417
918,-27.83203125,-50.78125,-54.6875,-13.18359375,1759871595.9602509,1759871595.977048
919,-55.17578125,-45.8984375,-48.33984375,-41.50390625,1759871595.9652932,1759871595.9809542
920,-46.875,-43.9453125,-41.015625,-43.9453125,1759871595.9703357,1759871595.9848604
921,-14.6484375,-42.96875,-44.921875,-0.9765625,1759871595.975378,1759871595.9887667
922,-18.5546875,-45.8984375,-50.29296875,2.9296875,1759871595.9804206,1759871595.992673
923,-48.33984375,-44.43359375,-52.24609375,-43.9453125,1759871595.985463,1759871595.9965792
924,-44.921875,-40.52734375,-54.19921875,-50.78125,1759871595.989235,1759871596.0004854
925,-21.484375,-44.43359375,-57.6171875,-25.87890625,1759871595.9930067,1759871596.0043917
926,-25.390625,-47.36328125,-53.7109375,-20.01953125,1759871595.9967787,1759871596.008298
927,-57.12890625,-47.36328125,-49.31640625,-52.734375,1759871596.0005505,1759871596.0122042
928,-66.89453125,-50.78125,-53.22265625,-87.890625,1759871596.0043225,1759871596.0161104
929,-31.25,-55.6640625,-53.7109375,-55.6640625,1759871596.0080945,1759871596.0200167
930,-18.5546875,-50.29296875,-52.734375,-18.06640625,1759871596.0118663,1759871596.023923
931,-46.38671875,-48.828125,-54.6875,-47.36328125,1759871596.0156384,1759871596.0278292
932,-59.08203125,-52.24609375,-51.7578125,-65.4296875,1759871596.0194101,1759871596.0317354
933,-28.3203125,-51.7578125,-47.8515625,-42.96875,1759871596.0231822,1759871596.0356417
934,-9.765625,-49.31640625,-48.828125,-16.6015625,1759871596.026954,1759871596.039548
935,-35.64453125,-45.8984375,-50.29296875,-35.64453125,1759871596.030726,1759871596.0434542
936,-47.36328125,-47.8515625,-50.78125,-78.125,1759871596.034482,1759871596.0473604
937,-46.38671875,-49.31640625,-52.734375,-68.359375,1759871596.038238,1759871596.0512667
938,-25.390625,-51.26953125,-54.6875,-31.73828125,1759871596.041994,1759871596.055173
939,-23.4375,-52.24609375,-50.78125,-23.92578125,1759871596.0457504,1759871596.0590792
940,-51.26953125,-52.24609375,-47.8515625,-55.17578125,1759871596.0495064,1759871596.0629854
941,-49.8046875,-54.19921875,-47.8515625,-72.265625,1759871596.0532625,1759871596.0668917
942,-21.484375,-45.41015625,-40.0390625,-39.0625,1759871596.0570185,1759871596.070798
943,-12.6953125,-42.96875,-39.0625,-7.8125,1759871596.0607746,1759871596.0747042
944,-25.390625,-49.31640625,-40.52734375,-20.01953125,1759871596.0645306,1759871596.0786104
945,-33.69140625,-46.38671875,-37.59765625,-39.55078125,1759871596.068287,1759871596.0825167
946,-16.11328125,-41.9921875,-41.015625,-33.69140625,1759871596.072043,1759871596.086423
947,-8.7890625,-47.36328125,-39.55078125,-2.44140625,1759871596.075799,1759871596.0903292
948,-33.203125,-51.26953125,-40.0390625,-3.90625,1759871596.079498,1759871596.0942354
949,-47.36328125,-47.36328125,-42.48046875,-43.45703125,1759871596.083197,1759871596.0981417
950,-30.2734375,-44.921875,-40.0390625,-63.4765625,1759871596.0868962,1759871596.102048
951,-6.8359375,-49.8046875,-43.45703125,-32.71484375,1759871596.0905952,1759871596.1059542
952,-14.6484375,-52.24609375,-46.875,-23.92578125,1759871596.0942943,1759871596.1098604
953,-46.875,-54.6875,-44.921875,-49.8046875,1759871596.0979936,1759871596.1137667
954,-48.33984375,-51.26953125,-44.43359375,-54.19921875,1759871596.1016927,1759871596.117673
955,-16.6015625,-47.36328125,-42.48046875,-30.2734375,1759871596.1053917,1759871596.1215792
956,-15.13671875,-52.734375,-48.33984375,-20.99609375,1759871596.1090908,1759871596.1254854
957,-45.8984375,-50.29296875,-49.31640625,-48.33984375,1759871596.1127899,1759871596.1293917
958,-53.22265625,-41.9921875,-43.9453125,-60.05859375,1759871596.116489,1759871596.133298
959,-16.11328125,-39.55078125,-45.8984375,-33.69140625,1759871596.120188,1759871596.1372042
960,-11.23046875,-45.8984375,-43.9453125,-18.5546875,1759871596.1240199,1759871596.1411104
961,-42.96875,-51.26953125,-41.50390625,-40.0390625,1759871596.1278517,1759871596.1450167
962,-62.98828125,-53.7109375,-49.31640625,-61.03515625,1759871596.1316836,1759871596.148923
963,-41.9921875,-57.12890625,-57.12890625,-43.45703125,1759871596.1355152,1759871596.1528292
964,-18.5546875,-58.59375,-57.6171875,-21.97265625,1759871596.139347,1759871596.1567354
965,-32.2265625,-54.6875,-58.59375,-45.8984375,1759871596.143179,1759871596.1606417
966,-55.6640625,-59.08203125,-59.08203125,-76.171875,1759871596.1470108,1759871596.164548
967,-44.43359375,-65.91796875,-57.6171875,-61.03515625,1759871596.1508427,1759871596.1684542
968,-24.4140625,-63.4765625,-62.01171875,-20.99609375,1759871596.1546745,1759871596.1723604
969,-36.1328125,-61.03515625,-64.453125,-23.4375,1759871596.1585062,1759871596.1762667
970,-59.5703125,-62.01171875,-61.5234375,-60.546875,1759871596.162338,1759871596.180173
971,-57.12890625,-61.03515625,-56.640625,-63.96484375,1759871596.16617,1759871596.1840792
972,-25.87890625,-54.19921875,-50.78125,-26.3671875,1759871596.1699798,1759871596.1879854
973,-22.94921875,-49.31640625,-50.29296875,-19.53125,1759871596.1737895,1759871596.1918917
974,-54.6875,-55.17578125,-52.734375,-55.17578125,1759871596.1775994,1759871596.195798
975,-60.05859375,-55.6640625,-52.734375,-61.5234375,1759871596.1814094,1759871596.1997042
976,-35.15625,-52.24609375,-56.640625,-41.50390625,1759871596.185219,1759871596.2036104
977,-21.97265625,-50.29296875,-50.29296875,-14.16015625,1759871596.189029,1759871596.2075167
978,-52.24609375,-49.8046875,-44.43359375,-36.62109375,1759871596.192839,1759871596.211423
979,-66.40625,-53.7109375,-48.33984375,-61.5234375,1759871596.1966486,1759871596.2153292
980,-34.1796875,-52.734375,-47.8515625,-31.25,1759871596.2004585,1759871596.2192354
981,-17.578125,-48.828125,-46.38671875,-8.30078125,1759871596.2042685,1759871596.2231417
982,-33.69140625,-43.45703125,-45.8984375,-25.87890625,1759871596.2080781,1759871596.227048
983,-57.6171875,-47.36328125,-41.015625,-58.10546875,1759871596.211888,1759871596.2309542
984,-41.50390625,-48.33984375,-41.9921875,-50.78125,1759871596.2154758,1759871596.2348604
985,-19.53125,-46.38671875,-47.8515625,-20.99609375,1759871596.2190635,1759871596.2387667
986,-27.34375,-44.43359375,-46.875,-10.7421875,1759871596.2226512,1759871596.242673
987,-49.31640625,-41.9921875,-46.875,-31.73828125,1759871596.226239,1759871596.2465792
988,-45.41015625,-41.015625,-42.96875,-35.15625,1759871596.2298267,1759871596.2504854
989,-14.16015625,-42.96875,-38.57421875,-14.16015625,1759871596.2334146,1759871596.2543917
990,-10.25390625,-42.48046875,-40.0390625,-16.6015625,1759871596.2370024,1759871596.258298
991,-41.50390625,-40.0390625,-43.9453125,-33.69140625,1759871596.24059,1759871596.2622042
992,-53.7109375,-38.0859375,-42.48046875,-45.8984375,1759871596.2441778,1759871596.2661104
993,-18.5546875,-38.0859375,-38.0859375,-28.80859375,1759871596.2477655,1759871596.2700167
994,-2.9296875,-43.9453125,-41.015625,-1.46484375,1759871596.2513533,1759871596.273923
995,-32.71484375,-47.8515625,-40.52734375,-26.3671875,1759871596.254941,1759871596.2778292
,TP9,AF7,AF8,TP10,board_ts,unix_ts
0,-43.9453125,-40.0390625,-36.62109375,-53.22265625,1759871596.258841,1759871596.2800052
1,-15.13671875,-34.66796875,-40.0390625,-29.296875,1759871596.262741,1759871596.2839115
2,-6.34765625,-44.921875,-47.36328125,1.46484375,1759871596.2666411,1759871596.2878177
3,-28.80859375,-53.7109375,-49.8046875,-21.484375,1759871596.2705414,1759871596.291724
4,-50.78125,-56.640625,-48.33984375,-56.640625,1759871596.2744415,1759871596.2956302
5,-48.828125,-56.15234375,-46.875,-44.921875,1759871596.2783415,1759871596.2995365
6,-20.99609375,-55.17578125,-45.41015625,-16.6015625,1759871596.2822416,1759871596.3034427
7,-19.53125,-50.29296875,-47.8515625,-14.6484375,1759871596.2861416,1759871596.307349
8,-60.05859375,-47.36328125,-54.6875,-57.6171875,1759871596.2900417,1759871596.3112552
9,-54.6875,-51.26953125,-60.05859375,-69.3359375,1759871596.293942,1759871596.3151615
10,-20.99609375,-57.12890625,-66.89453125,-45.8984375,1759871596.297842,1759871596.3190677
11,-16.11328125,-58.59375,-67.3828125,-30.76171875,1759871596.301742,1759871596.322974
12,-34.66796875,-57.12890625,-60.05859375,-52.24609375,1759871596.306641,1759871596.3268802
13,-46.38671875,-58.59375,-57.12890625,-79.1015625,1759871596.31154,1759871596.3307865
14,-27.34375,-60.05859375,-54.6875,-54.19921875,1759871596.3164387,1759871596.3346927
15,-12.20703125,-59.08203125,-52.734375,-16.11328125,1759871596.3213377,1759871596.338599
16,-25.87890625,-58.59375,-52.24609375,-29.296875,1759871596.3262367,1759871596.3425052
17,-57.6171875,-63.4765625,-55.17578125,-62.98828125,1759871596.3311355,1759871596.3464115
18,-46.38671875,-68.84765625,-57.12890625,-41.015625,1759871596.3360343,1759871596.3503177
19,-23.4375,-68.359375,-52.734375,-15.13671875,1759871596.3409333,1759871596.354224
20,-30.2734375,-69.3359375,-53.7109375,-30.2734375,1759871596.3458323,1759871596.3581302
21,-52.734375,-74.70703125,-56.640625,-52.734375,1759871596.3507311,1759871596.3620365
22,-50.29296875,-72.265625,-59.08203125,-56.640625,1759871596.35563,1759871596.3659427
23,-17.08984375,-68.84765625,-57.12890625,-32.2265625,1759871596.360529,1759871596.369849
24,-18.06640625,-65.91796875,-54.6875,-16.11328125,1759871596.3642995,1759871596.3737552
25,-34.66796875,-58.59375,-53.7109375,-31.25,1759871596.3680704,1759871596.3776615
26,-43.45703125,-58.10546875,-51.26953125,-50.29296875,1759871596.371841,1759871596.3815677
27,-27.83203125,-67.3828125,-53.22265625,-35.64453125,1759871596.3756115,1759871596.385474
28,-11.71875,-67.87109375,-54.6875,-13.671875,1759871596.3793824,1759871596.3893802
29,-36.1328125,-67.3828125,-52.734375,-32.71484375,1759871596.383153,1759871596.3932865
30,-55.6640625,-67.87109375,-56.640625,-56.15234375,1759871596.3869236,1759871596.3971927
31,-26.85546875,-61.5234375,-53.22265625,-38.57421875,1759871596.3906944,1759871596.401099
32,0.48828125,-61.03515625,-44.921875,0.48828125,1759871596.394465,1759871596.4050052
33,-21.484375,-63.96484375,-47.36328125,-8.7890625,1759871596.3982356,1759871596.4089115
34,-48.828125,-62.98828125,-48.828125,-46.38671875,1759871596.4020064,1759871596.4128177
35,-40.0390625,-65.91796875,-51.7578125,-47.36328125,1759871596.405777,1759871596.416724
36,-10.25390625,-66.40625,-55.17578125,-7.32421875,1759871596.4094567,1759871596.4206302
37,-24.4140625,-72.265625,-53.7109375,-18.06640625,1759871596.4131362,1759871596.4245365
38,-57.12890625,-75.1953125,-56.640625,-52.734375,1759871596.416816,1759871596.4284427
39,-52.734375,-64.94140625,-55.17578125,-45.8984375,1759871596.4204957,1759871596.432349
40,-24.90234375,-55.17578125,-52.24609375,-13.18359375,1759871596.4241753,1759871596.4362552
41,-13.671875,-50.29296875,-50.29296875,-2.9296875,1759871596.427855,1759871596.4401615
42,-44.921875,-49.8046875,-48.828125,-40.52734375,1759871596.4315348,1759871596.4440677
43,-56.15234375,-43.45703125,-52.24609375,-58.10546875,1759871596.4352143,1759871596.447974
44,-25.390625,-42.48046875,-52.734375,-29.78515625,1759871596.438894,1759871596.4518802
45,-12.20703125,-44.43359375,-51.26953125,3.90625,1759871596.4425738,1759871596.4557865
46,-40.52734375,-41.015625,-52.24609375,-23.4375,1759871596.4462533,1759871596.4596927
47,-68.84765625,-41.50390625,-52.24609375,-61.03515625,1759871596.449933,1759871596.463599
48,-46.875,-40.0390625,-56.640625,-48.33984375,1759871596.4539316,1759871596.4675052
49,-15.625,-40.52734375,-56.15234375,-19.04296875,1759871596.45793,1759871596.4714115
50,-32.2265625,-41.015625,-53.22265625,-23.92578125,1759871596.4619286,1759871596.4753177
51,-49.8046875,-39.0625,-54.19921875,-43.9453125,1759871596.4659271,1759871596.479224
52,-33.69140625,-44.43359375,-56.640625,-47.36328125,1759871596.4699256,1759871596.4831302
53,-22.4609375,-49.31640625,-60.05859375,-28.3203125,1759871596.4739242,1759871596.4870365
54,-36.62109375,-46.38671875,-55.17578125,-28.80859375,1759871596.4779224,1759871596.4909427
55,-59.08203125,-41.50390625,-50.29296875,-60.546875,1759871596.481921,1759871596.494849
56,-49.8046875,-41.50390625,-53.22265625,-62.5,1759871596.4859195,1759871596.4987552
57,-22.4609375,-39.55078125,-54.6875,-29.78515625,1759871596.489918,1759871596.5026615
58,-20.01953125,-30.76171875,-55.17578125,-21.97265625,1759871596.4939165,1759871596.5065677
59,-46.38671875,-32.71484375,-54.19921875,-51.7578125,1759871596.497915,1759871596.510474
60,-54.6875,-41.50390625,-52.24609375,-65.4296875,1759871596.5016143,1759871596.5143802
61,-29.78515625,-41.9921875,-58.10546875,-48.828125,1759871596.5053136,1759871596.5182865
62,-14.16015625,-41.015625,-60.546875,-25.87890625,1759871596.509013,1759871596.5221927
63,-36.1328125,-44.921875,-62.98828125,-43.9453125,1759871596.5127122,1759871596.526099
64,-62.01171875,-49.31640625,-63.4765625,-69.82421875,1759871596.5164115,1759871596.5300052
65,-37.59765625,-45.8984375,-57.6171875,-55.17578125,1759871596.520111,1759871596.5339115
66,-4.8828125,-48.33984375,-57.12890625,-24.4140625,1759871596.5238104,1759871596.5378177
67,-19.04296875,-52.24609375,-58.59375,-24.4140625,1759871596.5275097,1759871596.541724
68,-51.7578125,-52.734375,-60.05859375,-48.33984375,1759871596.531209,1759871596.5456302
69,-48.828125,-51.26953125,-60.05859375,-52.734375,1759871596.5349083,1759871596.5495365
70,-22.94921875,-46.875,-62.98828125,-34.66796875,1759871596.5386076,1759871596.5534427
71,-16.6015625,-46.875,-63.4765625,-25.390625,1759871596.542307,1759871596.557349
72,-51.26953125,-45.41015625,-59.08203125,-59.08203125,1759871596.5460062,1759871596.5612552
73,-66.89453125,-50.29296875,-63.96484375,-76.66015625,1759871596.5497055,1759871596.5651615
74,-27.83203125,-54.19921875,-65.4296875,-44.921875,1759871596.5534048,1759871596.5690677
75,-12.6953125,-51.7578125,-63.96484375,-22.94921875,1759871596.5571043,1759871596.572974
76,-41.50390625,-50.29296875,-66.89453125,-52.734375,1759871596.5608037,1759871596.5768802
77,-59.5703125,-52.24609375,-67.3828125,-83.984375,1759871596.564503,1759871596.5807865
78,-41.015625,-56.15234375,-62.5,-63.4765625,1759871596.5682023,1759871596.5846927
79,-15.625,-57.12890625,-63.96484375,-19.04296875,1759871596.5719016,1759871596.588599
80,-27.83203125,-50.78125,-66.89453125,-20.99609375,1759871596.5756009,1759871596.5925052
81,-48.828125,-43.45703125,-57.6171875,-57.6171875,1759871596.5793004,1759871596.5964115
82,-29.296875,-40.52734375,-56.15234375,-51.7578125,1759871596.5829997,1759871596.6003177
83,-2.44140625,-39.0625,-53.7109375,-9.765625,1759871596.586699,1759871596.604224
84,-15.625,-40.0390625,-50.29296875,-5.859375,1759871596.590424,1759871596.6081302
85,-50.78125,-46.38671875,-59.08203125,-60.05859375,1759871596.5941494,1759871596.6120365
86,-50.78125,-55.17578125,-58.10546875,-60.05859375,1759871596.5978746,1759871596.6159427
87,-18.06640625,-56.15234375,-57.6171875,-19.04296875,1759871596.6015997,1759871596.619849
88,-20.01953125,-52.734375,-65.91796875,-22.4609375,1759871596.6053247,1759871596.6237552
89,-56.640625,-53.22265625,-65.4296875,-54.6875,1759871596.60905,1759871596.6276615
90,-63.96484375,-54.19921875,-64.453125,-59.08203125,1759871596.6127753,1759871596.6315677
91,-25.87890625,-54.6875,-63.4765625,-19.53125,1759871596.6165004,1759871596.635474
92,-18.5546875,-50.29296875,-55.17578125,3.41796875,1759871596.6202254,1759871596.6393802
93,-57.12890625,-46.38671875,-54.6875,-21.97265625,1759871596.6239507,1759871596.6432865
94,-62.01171875,-44.43359375,-57.12890625,-37.109375,1759871596.627676,1759871596.6471927
95,-29.78515625,-38.57421875,-55.17578125,-23.4375,1759871596.631401,1759871596.651099
96,-15.13671875,-36.62109375,-55.17578125,-12.20703125,1759871596.6354432,1759871596.6550052
97,-36.1328125,-37.59765625,-56.15234375,-20.01953125,1759871596.6394856,1759871596.6589115
98,-70.3125,-46.38671875,-57.6171875,-55.17578125,1759871596.6435277,1759871596.6628177
99,-70.80078125,-52.734375,-58.10546875,-64.453125,1759871596.6475701,1759871596.666724
100,-42.48046875,-52.24609375,-61.03515625,-34.1796875,1759871596.6516123,1759871596.6706302
101,-49.8046875,-61.5234375,-68.359375,-36.1328125,1759871596.6556547,1759871596.6745365
102,-79.1015625,-62.01171875,-66.40625,-62.5,1759871596.6596968,1759871596.6784427
103,-74.21875,-53.7109375,-61.03515625,-63.4765625,1759871596.663739,1759871596.682349
104,-42.96875,-50.29296875,-60.546875,-41.015625,1759871596.6677814,1759871596.6862552
105,-36.62109375,-47.36328125,-61.5234375,-15.13671875,1759871596.6718235,1759871596.6901615
106,-61.5234375,-43.9453125,-62.01171875,-33.69140625,1759871596.675866,1759871596.6940677
107,-76.66015625,-44.43359375,-56.15234375,-61.5234375,1759871596.679908,1759871596.697974
108,-59.08203125,-44.921875,-53.22265625,-41.015625,1759871596.6834872,1759871596.7018802
109,-31.25,-42.96875,-53.22265625,-17.578125,1759871596.6870663,1759871596.7057865
110,-52.734375,-45.41015625,-54.19921875,-36.1328125,1759871596.6906455,1759871596.7096927
111,-76.171875,-46.875,-57.12890625,-63.96484375,1759871596.6942246,1759871596.713599
112,-45.41015625,-42.48046875,-49.8046875,-56.640625,1759871596.6978037,1759871596.7175052
113,-21.484375,-41.9921875,-46.38671875,-17.578125,1759871596.701383,1759871596.7214115
114,-34.1796875,-44.921875,-51.7578125,-14.6484375,1759871596.7049623,1759871596.7253177
115,-59.5703125,-41.50390625,-54.6875,-51.7578125,1759871596.7085414,1759871596.729224
116,-56.640625,-42.96875,-55.6640625,-53.22265625,1759871596.7121205,1759871596.7331302
117,-26.3671875,-49.8046875,-53.22265625,-18.06640625,1759871596.7156997,1759871596.7370365
118,-33.203125,-47.8515625,-49.8046875,-24.90234375,1759871596.7192788,1759871596.7409427
119,-67.87109375,-42.96875,-46.38671875,-58.10546875,1759871596.722858,1759871596.744849
120,-62.98828125,-41.9921875,-43.9453125,-54.6875,1759871596.7276535,1759871596.7487552
121,-22.94921875,-43.9453125,-47.8515625,-25.87890625,1759871596.7324493,1759871596.7526615
122,-14.16015625,-45.8984375,-52.734375,-13.671875,1759871596.737245,1759871596.7565677
123,-40.0390625,-38.57421875,-46.875,-40.0390625,1759871596.7420406,1759871596.760474
124,-51.7578125,-35.64453125,-44.43359375,-64.453125,1759871596.7468362,1759871596.7643802
125,-30.2734375,-43.45703125,-44.43359375,-24.90234375,1759871596.751632,1759871596.7682865
126,-11.71875,-49.31640625,-51.26953125,11.23046875,1759871596.7564278,1759871596.7721927
127,-46.875,-51.7578125,-58.10546875,-37.59765625,1759871596.7612233,1759871596.776099
128,-65.4296875,-51.26953125,-53.22265625,-66.40625,1759871596.7660189,1759871596.7800052
129,-36.62109375,-47.36328125,-51.7578125,-51.7578125,1759871596.7708147,1759871596.7839115
130,-3.90625,-41.50390625,-44.921875,-26.85546875,1759871596.7756104,1759871596.7878177
131,-17.08984375,-40.0390625,-40.0390625,-19.53125,1759871596.780406,1759871596.791724
132,-46.875,-38.0859375,-41.50390625,-44.43359375,1759871596.7841556,1759871596.7956302
133,-36.62109375,-38.0859375,-40.52734375,-42.48046875,1759871596.787905,1759871596.7995365
134,-9.765625,-41.9921875,-43.45703125,-11.71875,1759871596.7916546,1759871596.8034427
135,-9.27734375,-39.55078125,-42.96875,-13.18359375,1759871596.795404,1759871596.807349
136,-43.45703125,-39.0625,-41.9921875,-45.8984375,1759871596.7991536,1759871596.8112552
137,-58.59375,-44.43359375,-49.8046875,-56.640625,1759871596.8029032,1759871596.8151615
138,-26.85546875,-43.45703125,-55.6640625,-28.3203125,1759871596.8066525,1759871596.8190677
139,-5.859375,-38.57421875,-51.26953125,-4.8828125,1759871596.8104022,1759871596.822974
140,-28.80859375,-39.0625,-47.36328125,-26.85546875,1759871596.8141515,1759871596.8268802
141,-41.9921875,-41.9921875,-46.875,-45.41015625,1759871596.8179011,1759871596.8307865
142,-27.83203125,-40.0390625,-53.22265625,-37.109375,1759871596.8216505,1759871596.8346927
143,-18.06640625,-41.9921875,-57.6171875,-18.06640625,1759871596.8254,1759871596.838599
144,-26.85546875,-45.41015625,-58.10546875,-19.04296875,1759871596.8291404,1759871596.8425052
145,-49.31640625,-40.52734375,-52.24609375,-49.31640625,1759871596.8328807,1759871596.8464115
146,-39.0625,-39.55078125,-42.48046875,-44.43359375,1759871596.836621,1759871596.8503177
147,-6.34765625,-39.55078125,-38.0859375,-10.25390625,1759871596.8403614,1759871596.854224
148,-18.5546875,-38.57421875,-42.48046875,-17.08984375,1759871596.8441017,1759871596.8581302
149,-53.7109375,-43.9453125,-46.38671875,-47.8515625,1759871596.8478422,1759871596.8620365
150,-50.78125,-46.875,-42.96875,-45.41015625,1759871596.8515825,1759871596.8659427
151,-17.578125,-43.45703125,-46.38671875,-18.06640625,1759871596.8553228,1759871596.869849
152,-18.5546875,-43.9453125,-55.6640625,-8.7890625,1759871596.8590631,1759871596.8737552
153,-53.22265625,-44.43359375,-58.10546875,-49.31640625,1759871596.8628035,1759871596.8776615
154,-50.78125,-40.0390625,-55.17578125,-66.40625,1759871596.8665438,1759871596.8815677
155,-22.4609375,-41.015625,-46.875,-26.85546875,1759871596.870284,1759871596.885474
156,-12.20703125,-44.921875,-40.52734375,8.30078125,1759871596.8740711,1759871596.8893802
157,-32.2265625,-45.41015625,-46.38671875,-18.5546875,1759871596.8778582,1759871596.8932865
158,-59.08203125,-41.9921875,-50.78125,-50.78125,1759871596.8816452,1759871596.8971927
159,-36.1328125,-42.96875,-50.29296875,-25.87890625,1759871596.885432,1759871596.901099
160,-6.34765625,-43.45703125,-50.78125,5.859375,1759871596.889219,1759871596.9050052
161,-35.15625,-41.015625,-50.29296875,-13.18359375,1759871596.893006,1759871596.9089115
162,-51.26953125,-40.0390625,-53.7109375,-53.7109375,1759871596.8967931,1759871596.9128177
163,-40.0390625,-46.875,-56.640625,-52.24609375,1759871596.9005802,1759871596.916724
164,-20.99609375,-53.7109375,-57.12890625,-11.23046875,1759871596.9043672,1759871596.9206302
165,-25.87890625,-44.921875,-55.17578125,-9.765625,1759871596.908154,1759871596.9245365
166,-56.640625,-41.50390625,-51.26953125,-45.8984375,1759871596.911941,1759871596.9284427
167,-57.12890625,-45.8984375,-53.7109375,-48.33984375,1759871596.915728,1759871596.932349
168,-15.625,-43.45703125,-57.6171875,-8.7890625,1759871596.9194202,1759871596.9362552
169,-7.32421875,-41.015625,-52.24609375,2.9296875,1759871596.9231122,1759871596.9401615
170,-39.55078125,-39.55078125,-47.36328125,-33.203125,1759871596.9268043,1759871596.9440677
171,-49.8046875,-38.57421875,-49.31640625,-51.7578125,1759871596.9304965,1759871596.947974
172,-26.3671875,-39.55078125,-47.8515625,-25.390625,1759871596.9341884,1759871596.9518802
173,-3.90625,-34.66796875,-42.96875,-3.90625,1759871596.9378805,1759871596.9557865
174,-22.4609375,-35.64453125,-42.96875,-21.97265625,1759871596.9415727,1759871596.9596927
175,-48.828125,-43.9453125,-45.41015625,-38.57421875,1759871596.9452646,1759871596.963599
176,-37.109375,-45.41015625,-44.921875,-25.87890625,1759871596.9489567,1759871596.9675052
177,-17.08984375,-43.9453125,-45.41015625,4.8828125,1759871596.9526489,1759871596.9714115
178,-29.78515625,-46.38671875,-48.828125,-9.765625,1759871596.9563408,1759871596.9753177
179,-58.59375,-43.9453125,-59.08203125,-55.6640625,1759871596.960033,1759871596.979224
180,-53.7109375,-38.57421875,-53.7109375,-49.31640625,1759871596.9638438,1759871596.9831302
181,-14.16015625,-38.57421875,-40.0390625,-4.8828125,1759871596.9676547,1759871596.9870365
182,-10.7421875,-40.0390625,-41.015625,5.37109375,1759871596.9714656,1759871596.9909427
183,-50.29296875,-36.62109375,-45.8984375,-38.57421875,1759871596.9752762,1759871596.994849
184,-63.4765625,-37.109375,-47.8515625,-67.3828125,1759871596.979087,1759871596.9987552
185,-24.4140625,-39.55078125,-44.921875,-32.71484375,1759871596.982898,1759871597.0026615
186,-7.8125,-42.48046875,-43.9453125,-2.44140625,1759871596.9867089,1759871597.0065677
187,-34.1796875,-41.9921875,-46.875,-25.390625,1759871596.9905198,1759871597.010474
188,-57.12890625,-40.0390625,-41.9921875,-48.33984375,1759871596.9943306,1759871597.0143802
189,-41.015625,-38.0859375,-40.0390625,-36.1328125,1759871596.9981413,1759871597.0182865
190,-10.25390625,-42.96875,-47.36328125,2.9296875,1759871597.0019522,1759871597.0221927
191,-35.15625,-43.9453125,-46.875,-13.671875,1759871597.005763,1759871597.026099
192,-72.75390625,-41.9921875,-45.41015625,-71.2890625,1759871597.0096142,1759871597.0300052
193,-52.24609375,-43.45703125,-52.734375,-65.4296875,1759871597.0134652,1759871597.0339115
194,-9.765625,-46.38671875,-54.6875,-13.671875,1759871597.0173163,1759871597.0378177
195,-8.30078125,-43.45703125,-43.9453125,-8.7890625,1759871597.0211673,1759871597.041724
196,-45.41015625,-40.52734375,-40.52734375,-51.7578125,1759871597.0250185,1759871597.0456302
197,-49.8046875,-42.48046875,-42.48046875,-59.5703125,1759871597.0288696,1759871597.0495365
198,-9.27734375,-45.41015625,-43.9453125,-7.8125,1759871597.0327206,1759871597.0534427
199,-9.27734375,-50.78125,-45.41015625,16.6015625,1759871597.0365717,1759871597.057349
200,-58.59375,-45.41015625,-42.48046875,-33.203125,1759871597.0404227,1759871597.0612552
201,-65.91796875,-39.55078125,-43.45703125,-66.40625,1759871597.0442739,1759871597.0651615
202,-27.83203125,-43.9453125,-44.43359375,-53.22265625,1759871597.0481248,1759871597.0690677
203,-14.6484375,-45.41015625,-39.55078125,-19.04296875,1759871597.051976,1759871597.072974
204,-41.9921875,-42.96875,-38.0859375,-39.0625,1759871597.0568633,1759871597.0768802
205,-53.7109375,-40.0390625,-37.59765625,-65.4296875,1759871597.0617507,1759871597.0807865
206,-26.3671875,-40.52734375,-39.55078125,-35.64453125,1759871597.066638,1759871597.0846927
207,0.0,-40.0390625,-42.48046875,-7.8125,1759871597.0715253,1759871597.088599
208,-27.83203125,-43.9453125,-50.78125,-29.296875,1759871597.0764127,1759871597.0925052
209,-66.40625,-44.43359375,-51.26953125,-58.59375,1759871597.0813,1759871597.0964115
210,-40.52734375,-41.9921875,-41.50390625,-35.64453125,1759871597.0861874,1759871597.1003177
211,-11.23046875,-39.55078125,-40.52734375,-0.9765625,1759871597.0910747,1759871597.104224
212,-16.11328125,-27.83203125,-41.015625,-17.578125,1759871597.095962,1759871597.1081302
213,-43.9453125,-23.4375,-40.0390625,-53.22265625,1759871597.1008494,1759871597.1120365
214,-46.875,-27.34375,-39.55078125,-54.6875,1759871597.1057367,1759871597.1159427
215,-10.25390625,-31.73828125,-36.1328125,-21.484375,1759871597.110624,1759871597.119849
216,-4.8828125,-34.1796875,-38.57421875,-13.18359375,1759871597.114419,1759871597.1237552
217,-36.62109375,-38.0859375,-40.52734375,-50.78125,1759871597.118214,1759871597.1276615
218,-51.26953125,-39.55078125,-37.109375,-71.2890625,1759871597.1220088,1759871597.1315677
219,-30.76171875,-34.66796875,-39.0625,-41.50390625,1759871597.1258037,1759871597.135474
220,-18.5546875,-32.71484375,-34.1796875,-11.71875,1759871597.1295986,1759871597.1393802
221,-40.52734375,-35.15625,-30.2734375,-27.34375,1759871597.1333935,1759871597.1432865
222,-55.17578125,-36.1328125,-28.80859375,-52.24609375,1759871597.1371884,1759871597.1471927
223,-38.0859375,-37.59765625,-33.69140625,-39.0625,1759871597.1409833,1759871597.151099
224,-7.8125,-32.2265625,-34.1796875,2.44140625,1759871597.1447783,1759871597.1550052
225,-24.4140625,-29.296875,-35.64453125,-4.8828125,1759871597.1485732,1759871597.1589115
226,-68.84765625,-37.59765625,-37.109375,-48.33984375,1759871597.152368,1759871597.1628177
227,-53.22265625,-40.0390625,-39.0625,-52.734375,1759871597.156163,1759871597.166724
228,-11.71875,-41.50390625,-47.36328125,-11.23046875,1759871597.159973,1759871597.1706302
229,-16.11328125,-41.50390625,-43.9453125,-3.41796875,1759871597.1637828,1759871597.1745365
230,-52.734375,-32.71484375,-42.48046875,-49.8046875,1759871597.1675928,1759871597.1784427
231,-54.19921875,-33.69140625,-47.36328125,-71.2890625,1759871597.1714027,1759871597.182349
232,-16.6015625,-35.15625,-42.96875,-29.296875,1759871597.1752126,1759871597.1862552
233,-3.90625,-37.59765625,-37.109375,-7.32421875,1759871597.1790223,1759871597.1901615
234,-36.62109375,-46.38671875,-43.9453125,-55.17578125,1759871597.1828322,1759871597.1940677
235,-69.82421875,-55.6640625,-50.29296875,-81.54296875,1759871597.1866422,1759871597.197974
236,-48.828125,-60.05859375,-56.15234375,-52.734375,1759871597.190452,1759871597.2018802
237,-14.16015625,-60.05859375,-59.5703125,-12.20703125,1759871597.194262,1759871597.2057865
238,-34.1796875,-61.5234375,-52.24609375,-29.296875,1759871597.198072,1759871597.2096927
239,-62.01171875,-62.01171875,-46.875,-68.359375,1759871597.201882,1759871597.213599
240,-45.8984375,-62.01171875,-53.22265625,-54.19921875,1759871597.2055128,1759871597.2175052
241,-20.99609375,-63.4765625,-54.19921875,-19.04296875,1759871597.2091436,1759871597.2214115
242,-33.69140625,-64.94140625,-52.24609375,-35.15625,1759871597.2127745,1759871597.2253177
243,-68.359375,-66.89453125,-51.7578125,-76.171875,1759871597.2164052,1759871597.229224
244,-63.96484375,-66.89453125,-52.734375,-74.70703125,1759871597.220036,1759871597.2331302
245,-35.15625,-71.77734375,-52.734375,-25.87890625,1759871597.223667,1759871597.2370365
246,-40.0390625,-77.63671875,-48.828125,-10.7421875,1759871597.2272978,1759871597.2409427
247,-65.91796875,-78.61328125,-48.828125,-55.17578125,1759871597.2309287,1759871597.244849
248,-77.1484375,-81.54296875,-52.734375,-63.96484375,1759871597.2345595,1759871597.2487552
249,-45.41015625,-77.1484375,-51.7578125,-33.203125,1759871597.2381902,1759871597.2526615
250,-28.3203125,-66.89453125,-46.875,-11.71875,1759871597.241821,1759871597.2565677
251,-63.96484375,-66.40625,-46.875,-32.2265625,1759871597.245452,1759871597.260474
252,-73.73046875,-67.3828125,-46.38671875,-54.6875,1759871597.2491984,1759871597.2643802
253,-38.0859375,-62.5,-43.45703125,-38.57421875,1759871597.2529452,1759871597.2682865
254,-18.06640625,-53.7109375,-43.45703125,-15.13671875,1759871597.2566917,1759871597.2721927
255,-34.66796875,-48.828125,-44.43359375,-28.3203125,1759871597.2604382,1759871597.276099
256,-55.6640625,-48.828125,-47.8515625,-56.640625,1759871597.264185,1759871597.2800052
257,-46.875,-48.33984375,-45.41015625,-35.15625,1759871597.2679315,1759871597.2839115
258,-14.6484375,-45.41015625,-46.38671875,-1.953125,1759871597.271678,1759871597.2878177
259,-14.6484375,-45.41015625,-50.29296875,-8.7890625,1759871597.2754247,1759871597.291724
260,-50.29296875,-46.875,-47.36328125,-40.52734375,1759871597.2791712,1759871597.2956302
261,-59.5703125,-43.45703125,-44.43359375,-56.15234375,1759871597.2829177,1759871597.2995365
262,-13.18359375,-40.52734375,-42.48046875,-25.87890625,1759871597.2866645,1759871597.3034427
263,-7.32421875,-42.96875,-44.921875,-3.90625,1759871597.290411,1759871597.307349
264,-48.828125,-43.45703125,-47.36328125,-36.62109375,1759871597.2941396,1759871597.3112552
265,-62.5,-41.015625,-52.24609375,-59.5703125,1759871597.2978683,1759871597.3151615
266,-29.296875,-37.109375,-45.8984375,-21.97265625,1759871597.3015969,1759871597.3190677
267,-12.6953125,-33.69140625,-43.45703125,6.34765625,1759871597.3053257,1759871597.322974
268,-43.45703125,-36.1328125,-49.8046875,-26.3671875,1759871597.3090544,1759871597.3268802
269,-69.3359375,-44.43359375,-57.12890625,-60.546875,1759871597.312783,1759871597.3307865
270,-48.828125,-40.52734375,-58.59375,-41.9921875,1759871597.3165116,1759871597.3346927
271,-14.16015625,-41.9921875,-57.12890625,0.48828125,1759871597.3202403,1759871597.338599
272,-41.9921875,-45.8984375,-51.7578125,-17.08984375,1759871597.323969,1759871597.3425052
273,-76.171875,-38.57421875,-48.33984375,-57.12890625,1759871597.3276978,1759871597.3464115
274,-66.89453125,-40.52734375,-53.7109375,-48.33984375,1759871597.3314264,1759871597.3503177
275,-35.64453125,-40.0390625,-50.29296875,-19.04296875,1759871597.335155,1759871597.354224
276,-47.8515625,-41.015625,-55.6640625,-34.1796875,1759871597.339082,1759871597.3581302
277,-72.75390625,-41.015625,-63.96484375,-88.8671875,1759871597.3430092,1759871597.3620365
278,-62.01171875,-39.0625,-56.15234375,-95.21484375,1759871597.3469362,1759871597.3659427
279,-29.78515625,-39.0625,-53.22265625,-45.8984375,1759871597.3508635,1759871597.369849
280,-12.20703125,-37.59765625,-47.8515625,-17.578125,1759871597.3547904,1759871597.3737552
281,-37.59765625,-38.0859375,-40.0390625,-45.8984375,1759871597.3587177,1759871597.3776615
282,-45.41015625,-30.76171875,-39.0625,-68.359375,1759871597.3626447,1759871597.3815677
283,-9.765625,-27.83203125,-39.0625,-32.2265625,1759871597.3665717,1759871597.385474
284,7.8125,-30.76171875,-41.50390625,-6.8359375,1759871597.370499,1759871597.3893802
285,-23.4375,-31.25,-41.015625,-27.83203125,1759871597.374426,1759871597.3932865
286,-52.734375,-27.34375,-45.41015625,-49.8046875,1759871597.378353,1759871597.3971927
287,-30.76171875,-30.76171875,-47.8515625,-30.2734375,1759871597.38228,1759871597.401099
288,-14.6484375,-35.15625,-49.31640625,1.953125,1759871597.386032,1759871597.4050052
289,-42.96875,-32.71484375,-50.78125,-23.4375,1759871597.3897839,1759871597.4089115
290,-67.87109375,-32.71484375,-48.33984375,-67.3828125,1759871597.3935359,1759871597.4128177
291,-55.17578125,-32.2265625,-50.29296875,-60.546875,1759871597.3972878,1759871597.416724
292,-12.6953125,-34.1796875,-47.36328125,-22.4609375,1759871597.4010396,1759871597.4206302
293,-18.06640625,-41.015625,-46.875,-22.94921875,1759871597.4047916,1759871597.4245365
294,-59.08203125,-48.33984375,-51.7578125,-57.6171875,1759871597.4085436,1759871597.4284427
295,-67.87109375,-49.8046875,-56.15234375,-60.546875,1759871597.4122953,1759871597.432349
296,-38.0859375,-52.734375,-53.7109375,-40.0390625,1759871597.4160473,1759871597.4362552
297,-33.69140625,-51.26953125,-50.29296875,-24.4140625,1759871597.4197993,1759871597.4401615
298,-65.91796875,-52.24609375,-54.19921875,-59.5703125,1759871597.423551,1759871597.4440677
299,-70.80078125,-52.24609375,-56.640625,-87.890625,1759871597.427303,1759871597.447974
300,-43.45703125,-45.8984375,-57.6171875,-56.15234375,1759871597.4321299,1759871597.4518802
301,-35.64453125,-50.29296875,-61.5234375,-36.1328125,1759871597.436957,1759871597.4557865
302,-63.4765625,-54.19921875,-61.03515625,-67.87109375,1759871597.441784,1759871597.4596927
303,-81.0546875,-55.6640625,-61.03515625,-97.16796875,1759871597.4466107,1759871597.463599
304,-73.73046875,-49.8046875,-59.5703125,-74.70703125,1759871597.4514375,1759871597.4675052
305,-30.76171875,-48.828125,-56.640625,-23.92578125,1759871597.4562645,1759871597.4714115
306,-27.83203125,-53.22265625,-57.6171875,-22.4609375,1759871597.4610915,1759871597.4753177
307,-68.84765625,-47.8515625,-47.36328125,-74.70703125,1759871597.4659183,1759871597.479224
308,-58.59375,-42.48046875,-45.41015625,-75.68359375,1759871597.470745,1759871597.4831302
309,-21.97265625,-45.8984375,-51.26953125,-30.2734375,1759871597.475572,1759871597.4870365
310,-26.3671875,-46.875,-54.6875,-22.94921875,1759871597.4803991,1759871597.4909427
311,-71.77734375,-43.45703125,-55.6640625,-60.05859375,1759871597.485226,1759871597.494849
312,-80.56640625,-44.921875,-54.19921875,-76.66015625,1759871597.4891746,1759871597.4987552
313,-40.52734375,-44.921875,-53.22265625,-43.9453125,1759871597.493123,1759871597.5026615
314,-25.87890625,-40.52734375,-52.734375,-28.3203125,1759871597.4970717,1759871597.5065677
315,-61.5234375,-41.50390625,-54.19921875,-65.91796875,1759871597.5010202,1759871597.510474
316,-76.66015625,-43.45703125,-56.15234375,-80.56640625,1759871597.504969,1759871597.5143802
317,-37.59765625,-44.43359375,-53.7109375,-43.45703125,1759871597.5089173,1759871597.5182865
318,-18.06640625,-44.921875,-54.6875,-17.578125,1759871597.512866,1759871597.5221927
319,-46.38671875,-40.0390625,-58.10546875,-40.52734375,1759871597.5168147,1759871597.526099
320,-66.40625,-34.66796875,-54.6875,-81.54296875,1759871597.5207632,1759871597.5300052
321,-41.50390625,-33.203125,-46.38671875,-62.01171875,1759871597.5247118,1759871597.5339115
322,-18.06640625,-36.1328125,-46.875,-17.08984375,1759871597.5286603,1759871597.5378177
323,-40.0390625,-39.0625,-52.24609375,-34.66796875,1759871597.532609,1759871597.541724
324,-68.359375,-41.9921875,-54.6875,-73.73046875,1759871597.5363307,1759871597.5456302
325,-61.03515625,-44.921875,-60.05859375,-75.1953125,1759871597.5400527,1759871597.5495365
326,-31.25,-47.36328125,-60.05859375,-38.57421875,1759871597.5437746,1759871597.5534427
327,-23.4375,-48.828125,-54.19921875,-14.6484375,1759871597.5474963,1759871597.557349
328,-51.7578125,-53.22265625,-53.7109375,-45.8984375,1759871597.551218,1759871597.5612552
329,-68.359375,-62.01171875,-57.6171875,-77.1484375,1759871597.55494,1759871597.5651615
330,-37.109375,-60.05859375,-57.6171875,-51.7578125,1759871597.558662,1759871597.5690677
331,-17.08984375,-51.26953125,-52.24609375,-22.4609375,1759871597.5623837,1759871597.572974
332,-44.43359375,-46.38671875,-56.15234375,-49.31640625,1759871597.5661054,1759871597.5768802
333,-55.17578125,-38.0859375,-52.24609375,-56.15234375,1759871597.5698273,1759871597.5807865
334,-32.2265625,-31.73828125,-44.43359375,-38.0859375,1759871597.5735493,1759871597.5846927
335,1.953125,-33.203125,-42.48046875,-12.6953125,1759871597.577271,1759871597.588599
336,-21.484375,-42.48046875,-47.8515625,-25.87890625,1759871597.580926,1759871597.5925052
337,-58.10546875,-46.38671875,-56.15234375,-71.2890625,1759871597.5845807,1759871597.5964115
338,-36.1328125,-41.9921875,-54.6875,-58.10546875,1759871597.5882354,1759871597.6003177
339,-5.859375,-42.96875,-45.8984375,-11.23046875,1759871597.5918903,1759871597.604224
340,-9.27734375,-49.31640625,-48.33984375,-19.04296875,1759871597.5955453,1759871597.6081302
341,-50.29296875,-54.19921875,-54.6875,-71.2890625,1759871597.5992,1759871597.6120365
342,-46.875,-51.26953125,-55.17578125,-73.73046875,1759871597.6028547,1759871597.6159427
343,-11.71875,-50.78125,-55.6640625,-35.64453125,1759871597.6065097,1759871597.619849
344,-17.578125,-53.22265625,-59.5703125,-6.8359375,1759871597.6101646,1759871597.6237552
345,-43.45703125,-53.22265625,-57.6171875,-34.66796875,1759871597.6138194,1759871597.6276615
346,-50.29296875,-46.875,-56.15234375,-63.96484375,1759871597.617474,1759871597.6315677
347,-27.83203125,-46.875,-58.10546875,-46.38671875,1759871597.621129,1759871597.635474
348,-6.34765625,-52.24609375,-53.22265625,-28.3203125,1759871597.624805,1759871597.6393802
349,-26.85546875,-48.33984375,-43.45703125,-37.109375,1759871597.628481,1759871597.6432865
350,-46.38671875,-42.96875,-41.50390625,-54.19921875,1759871597.6321568,1759871597.6471927
