,TP9,AF7,AF8,TP10
0,-6.7531394127113895,-58.87833493313194,-208.1011161832386,-2.5730763012526268
1,-21.78842685440186,-144.8736604661731,-544.7046702258792,-7.577523362182678
2,-27.539257144042978,-117.14006159045418,-483.3943010870991,-9.107873036794048
3,-25.835686202092013,-113.88662990122168,-405.1083908318983,-11.364910518323152
4,-29.58687487112438,-180.81541412093063,-560.3188549256674,-17.820989347532695
5,-28.965307504007257,-148.26944822724613,-461.9227910675186,-20.66148029215058
6,-27.16204169334185,-110.16862857827893,-394.8969930314624,-19.612019686509512
7,-30.69526525710512,-137.97704408038135,-447.5336699910658,-16.888216058264362
8,-30.827602436181223,-188.97640192678043,-470.7554553270347,-13.875794438621142
9,-28.344390943190437,-108.60445165126748,-410.4577201909415,-13.124762675266766
10,-21.618863622321783,1.7720471907423416,-194.86168899096447,-18.891073898318496
11,-13.673914993871222,-129.29237137190376,-295.8881687266403,-27.550840087821143
12,-19.87631058892612,-142.55036729150743,-417.355414748341,-22.004730509958332
13,-23.669202318362068,-27.506516885701785,-233.58544475584492,-12.731951395155647
14,-11.003364204020272,-100.2718952182404,-264.7215654683096,-14.120609443562444
15,-7.903051220567704,-106.61584472681352,-344.63167161545425,-13.508651219120338
16,-8.470743100337586,-45.4316914840856,-261.2650595833402,-12.71038781630068
17,4.94173435217499,-74.5712849346728,-254.1459615514541,-14.177140753298772
18,9.843153631005409,-96.50965961981274,-277.3956633189809,-13.757508282787969
19,1.5942753857270873,-90.35919408333577,-285.0121815863968,-9.12138076978954
20,-0.4215818796456005,-54.81536313372635,-287.36814579459315,-0.1836058512453746
21,-0.838758255281391,-7.35324436864903,-183.8100212791178,-3.813381939371084
22,-6.63452575658539,-53.77415327688868,-156.73411480495997,-12.004558556204756
23,-7.037466716144081,-98.31826829529018,-269.220038420739,-13.104744093839145
24,-6.769487509562168,-3.61670564299493,-173.42504357066355,-18.9835798297363
25,-0.145197391896545,7.534820384862542,-80.02203385379107,-18.97282156512847
26,12.016313794753842,-85.18584894590458,-213.7063413763244,-15.07859811835533
27,-5.6893803723205565,-86.29634335906303,-253.4058202261367,-21.59689323243037
28,-21.48118898380017,-56.10140860196407,-195.89071271871217,-24.42903129447768
29,-12.334974094104837,-49.36304002958786,-174.3205098718754,-23.19522886582763
30,-19.089936273037893,-86.12263408458239,-216.015519949171,-23.695853658764463
31,-15.575473783246707,-109.46012971893651,-253.86374285604688,-14.600333559982571
32,-0.9988061246513098,-12.741347582377784,-114.3574985426967,-8.755368296006964
33,-6.040989540006194,38.80463433544355,20.13654921972193,-15.844166955181208
34,-3.848929416099054,-59.64555821615068,-83.15394769315026,-14.835128040487689
35,-3.394519277870131,-71.33532551660755,-150.96312813891564,-6.393010756160948
36,-7.33894757447888,-14.110162351971669,-62.18368225404993,-5.444690806933068
37,-0.4196852304103231,-53.90079978799622,-48.611832546128426,-10.083292501445612
38,-4.733658341738192,-68.64099887071643,-67.37460401267163,-12.061970257353096
39,-8.507304812406801,-47.57818855358346,-44.530442032672,-5.882544529171355
40,2.406526300157566,-41.48672970623011,6.74962856961065,-0.0152347584444214
41,5.160367928679989,-77.14552038793045,17.177061957132537,-1.3223550649836395
42,-2.1519024384924705,-112.83841059879342,-31.25935386616038,-3.945646110203597
43,0.1129984566650819,-42.56138504127739,54.19715611700667,-4.479131850703197
44,11.612868865520795,-44.68176406236307,109.2439869083464,-0.3087405428632337
45,12.250173047104909,-128.07791077137517,19.107937271532137,2.034480062835428
46,5.913484753431476,-147.5651070829772,-30.43889264605241,4.553094782979315
47,5.117580985908717,-127.01941232444368,-19.16053795814514,13.13425185662345
48,5.775021068731803,-65.33561504923273,109.92915927653668,6.492007188529897
49,12.939501021619437,-112.8413499249582,122.47442950087134,-1.6639050620960916
50,17.67664670521117,-221.74840719191707,-64.97433083358919,6.956251730658551
51,10.32463158419705,-165.23163359791215,-14.187109492020682,6.593308389405138
52,7.282605749409413,-97.67686563900496,131.20629958377685,5.679436313250335
53,8.539154247449915,-171.7303388286964,28.820596727600787,13.324889868137689
54,10.10894123619073,-254.395260510355,-124.57675948622636,14.713573888286192
55,8.442593963536638,-147.8528027721477,-33.32938961870968,6.909825452574296
56,2.526786033657117,-33.69522754789796,173.76212750689592,-9.196901576597156
57,9.597732804599218,-155.01677336610737,73.96984060743125,-15.826270122037386
58,13.129673830659158,-174.84440976462793,-67.98822721815668,-13.879064741620825
59,5.722830535800313,-77.73994695281726,47.83339352934854,-13.69501368451165
60,15.124088384138304,-154.96769697140553,22.692669316078536,-4.017664744213107
61,23.974737528267724,-193.88353529706364,-92.91432220640128,4.340763154999877
62,17.237392928982445,-126.68867661288824,-42.748620761442,7.237238985428121
63,14.69854606143781,-106.29672664310785,20.833875044132583,17.813633850957558
64,12.970483614823024,-137.09446720272535,-11.315150627691764,24.13390225002877
65,3.6786080810270505,-163.64523286744952,-92.33612082659964,22.681643902244105
66,-6.213743166561471,-116.08355284921709,-76.20002286479576,25.160499250872817
67,0.9769173437234712,-57.86770292898291,22.00605439109495,30.12316153147185
68,25.025907047976943,-55.08685808716109,55.85171687870752,31.37966734431029
69,29.713519963414,-105.01792159699836,-37.915293543599546,26.367704332333236
70,19.73491552724954,-99.36599502785248,-104.21872442855964,31.411135640992143
71,24.897839670229587,36.34058180483407,99.55513971415348,38.042241678344
72,29.49420248506067,29.45509968235274,181.0359228989109,20.69404072113321
73,30.75722332116493,-86.38273876460153,-30.233320963336155,19.040544497758678
74,38.10624561239092,-14.015133390028495,12.253031746833583,35.52934382768581
75,37.72136600269732,50.60340468629147,140.02035684278235,30.75083834618636
76,39.1144203594049,8.07095774190384,65.19306159787811,35.402523763004865
77,45.306824863437214,-3.020497061253991,15.333759750821628,50.353313580926624
78,42.6806560931509,31.845460497948807,42.28331209695898,44.93871059217781
79,46.84756536181885,93.74113491730532,137.81820430862717,35.63820463634693
80,47.363239803537,56.97274116287008,114.27009816723876,36.804353416286176
81,31.43376376026572,21.02864749589935,23.33193130150903,39.81331949609012
82,25.99012402856897,96.57861006358873,126.39540537702852,38.49338711130258
83,23.54896329356052,93.17381745047167,169.00717654125765,37.69360770589629
84,24.412917718163957,30.310625768324822,54.718859496410005,36.2334822962257
85,36.57201861662179,27.8190484745428,-7.792399051133543,41.24335515420898
86,24.57426587900045,123.33112843957495,110.93695023632608,43.26105153901881
87,11.575598483370412,172.5334522361518,248.45216929132584,25.889918259545084
88,26.04930954329029,57.52565291489009,113.91830788762309,22.580305648123613
89,26.853608854737104,63.71059030236211,44.6638759925263,28.261067768908102
90,20.2870770091904,142.3289657968562,156.5121272073593,20.81624033375192
91,23.323367849821807,102.95507068099688,143.49263483041432,19.58568512281272
92,13.444330080976217,82.35268070478924,83.83489258249756,17.26447849419492
93,6.644464435292321,100.81307987263426,54.99710191076156,15.184355084755223
94,13.011987262674666,150.44898699445184,143.4021214894019,15.923481881342012
95,14.897618698381848,132.88772584975231,174.28796180256177,12.446699642339809
96,13.473939172341488,85.20510744437343,49.19586615310982,20.61470131621536
97,9.24956026817381,150.42458757507848,123.37092416081578,26.31533753794065
98,11.84576606268638,169.71563593449537,210.81253435916733,18.617303718878247
99,23.09753653282678,117.6321708317846,112.97506874916144,17.346931834050338
100,22.908027321194822,100.99904840171804,61.92382287897635,25.27351128704686
101,11.93956800320666,113.56110780272866,81.74268093670253,27.80177425261354
102,2.2239266045671684,143.47903126041638,125.3815133732278,15.278071821230697
103,4.056250171670399,137.17741972225485,125.97449745156337,9.927911833434337
104,10.519913983673176,102.11375710426364,85.94957004499156,20.2526123921416
105,9.087772349050285,179.66062031610636,204.89569386816584,19.726086035461776
106,12.576900347019546,248.99418682971736,324.02369675866794,17.620630826739216
107,23.36802367670134,155.09217228280613,198.87311172753107,26.00341693444716
108,29.690104072382383,155.89058576477692,155.43413956684526,24.91543795744656
109,31.163523533479747,234.3934292196645,261.5647090136772,23.807910394254577
110,34.51143863231482,202.539307862462,270.18368273286615,37.33718956870871
111,41.820768079582194,178.0352275792975,228.99809188814837,41.74850873285686
112,44.59649552800147,201.2380306960549,205.349508640822,36.89455995368189
113,43.69490501235032,225.0196346699377,266.99533281242475,45.41997148293194
114,50.09817219311299,195.07465692452388,286.96799658227246,51.59760723773616
115,49.68029877977688,176.18874396639876,214.9568389718188,48.61812362596356
116,31.801514305710494,234.28043188527224,271.7120837762486,49.77405713930239
117,32.70584008696369,266.8314593156101,384.2181950157974,43.48811336402287
118,50.86228855658055,228.148420376936,354.8509083552053,36.38719911790031
119,45.28890254161797,166.96780307515291,238.02520086732693,44.31483950184702
120,39.3007806836622,190.50386554183208,268.67859118175693,51.526961387733536
121,50.14568963706961,228.14377483958376,345.67443197791,51.27307040248161
122,52.51445343247815,166.96123281586915,249.6603146190755,48.01326586650248
123,52.11483741823304,127.41182697744809,177.56551554019097,41.91124820396362
124,51.941386601255545,169.3673888706253,254.44973379629664,40.68572502705183
125,43.35458499046126,186.5366608100594,307.8630809875904,46.49771110257302
126,39.82191012056319,131.77936151542235,218.0755992161576,46.72615252729702
127,34.167575153824146,116.88056452566524,155.62538609316107,35.27024485859624
128,20.497435670948107,208.6540957277175,280.306543961633,27.222717485150497
129,25.53525911048928,255.4432805540855,386.06882878404576,27.679398514671448
130,31.191044343935573,163.32472056674305,273.4198255480733,28.077086906028853
131,20.106552435849157,148.39892144908663,189.11063336383089,29.126060573838004
132,22.126146269758465,212.32620676414808,274.14656410436146,33.028370143923894
133,25.55184259606176,158.52398621873,253.1092957627261,35.29490520708714
134,18.013452114973916,128.59096907626372,167.5175782010192,26.88015035972967
135,16.09920957577924,170.0103895571665,192.89102542947512,19.26574260792586
136,9.519220533780754,160.28174805099843,217.21132670284717,18.825414167185954
137,2.0671410995819315,107.81188925215974,153.7792422218481,10.502950559617602
138,5.514600105700083,94.31559539056616,86.6955773794325,4.121167651781434
139,5.243381592852529,157.44321013765875,134.61989882728085,0.3409649101595278
140,4.365864526524092,171.90379979932914,196.1102179083973,-8.55143751598007
141,4.13602367562271,114.59470764081924,138.5321823420236,-7.572153039498517
142,0.8608163321114262,63.71173515124247,3.0428310341667384,2.7811513301894597
143,3.7663371717499103,68.35491102538072,-35.15075125859585,10.244418599351777
144,2.1280416441804846,157.13750554260332,141.20412745140493,5.906005556244054
145,3.695188756159041,138.22897125210147,177.62912301847246,-1.3131666543486062
146,7.995891199236212,32.713528248656075,-21.8429881723132,-2.66099676975864
147,-7.57949995076342,90.7749769318034,13.817382881068625,-11.414184177883726
148,-15.427807040257903,133.55795333860442,112.8783686516108,-16.91805207552534
149,-5.066495299826784,35.91847075376427,-33.86261152056977,-9.143310149753232
150,-5.947072486931575,15.33438131143339,-107.38101354823448,-7.541610354513978
151,-14.212531362216396,115.06668701651506,29.202986802556552,-15.436854889696406
152,-13.294072875447457,157.7571269053151,137.61564866197295,-19.80442336131091
153,-13.690187539687033,73.36706144484924,33.76086006278638,-19.071242239275307
154,-20.48990957458591,43.694326930330135,-70.68421071174089,-18.059634847551933
155,-15.175898157140182,106.99200967414072,25.21025686606299,-13.651377792004496
156,-7.745079275795433,117.90637763851556,90.90719544654712,-8.390046970591357
157,-13.1276172461221,84.95737525797449,11.554195653297938,-10.11735334097466
158,-12.49927179151564,103.66012033558218,-2.0481346455635503,-12.154158250508772
159,-9.294432565613532,133.59637120284606,79.08789653610438,-10.685788157548814
160,-17.979655528397416,74.98780987557257,41.295496054692194,-14.513869083093596
161,-24.443183604002115,34.60586527007399,-50.53587984421756,-21.701371578674294
162,-23.08291273158102,82.0949721695506,-21.29140888445545,-21.454191444907337
163,-22.697520349058323,120.64575058443006,77.50754069304094,-19.681942323950352
164,-23.668750162323704,93.1618331372738,87.49824585323222,-21.804506128741195
165,-24.422215057027643,37.54645647050347,-32.36918971175328,-16.666456549195573
166,-26.975971686522826,74.19969512283569,-38.99861353659071,-10.24045994861808
167,-29.780068616659264,139.13934092741692,97.89336882799398,-16.27964468060236
168,-28.71793509494455,82.29328006471042,94.34118653705808,-25.609032995984307
169,-28.549861897103256,6.181207514600828,-22.379537445376627,-30.915152969784685
170,-30.9905473865947,43.429290905827656,-3.137718552607112,-36.22650314864586
171,-35.19072338036494,99.48492516000988,91.83658803626896,-37.8474608950055
172,-40.08499110907724,46.02936555980705,31.93128588667605,-35.73729431266838
173,-37.30766780699196,-20.601404113403987,-88.98869371332694,-32.34523537836503
174,-33.39754202167387,13.675216602510773,-53.96058884705417,-29.136303670878988
175,-31.05518412082165,64.65612820617389,56.74186467786785,-36.63681855917093
176,-24.45331233496836,17.802493449184112,10.119846500921994,-44.27525904723734
177,-22.808713934660773,-61.33561242191354,-133.5575506357709,-37.8524918431358
178,-26.42433123306546,13.75873356318334,-35.746554296812974,-30.207674634526484
179,-31.22639144587447,78.9106066437671,106.83882516156882,-27.487147596490104
180,-35.35807536599168,-33.354856206977274,-53.68666693067644,-29.56069056520937
181,-34.70995455983211,-23.183538069715723,-113.49021446343976,-32.04842317198927
182,-30.407953830086623,50.92697216395754,16.93779774813447,-27.970179064039257
183,-21.13320518372348,-25.629171353473797,-32.91565173480194,-26.69967086102406
184,-20.04663999301556,-49.27885255648289,-109.50535585847685,-27.17404351109872
185,-28.570303123939084,-17.716464340046514,-88.03436614340171,-20.438043968068087
186,-23.357129236872424,-13.648096041870303,-62.24633417837322,-19.35394425728009
187,-17.80779891232669,-10.221161759458482,-26.16096027905587,-28.23666667814541
188,-25.899117186490912,-65.16699058251106,-95.20251673518214,-30.43961547827348
189,-27.11992593268224,-62.33189330674941,-158.4488509373041,-24.037889070634264
190,-23.69317547220271,16.27313879795838,-16.890133382868953,-18.570947087500823
191,-23.85542088870716,-48.83753541321494,-11.506554662017152,-15.438873330655042
192,-17.476866465585772,-125.7471971801715,-164.70409846492112,-14.299522609697306
193,-12.021849993092474,-58.212782290094765,-89.59207715990487,-15.298303405128536
194,-14.858598642385914,-53.651638013659976,-22.82890537090134,-12.699212337567587
195,-17.489528530990356,-129.34297747758683,-138.52264219650533,-9.188800216259551
196,-18.25064511630626,-149.11013390601147,-165.58516609179787,-8.708685681471252
197,-15.14533631458471,-111.265566600865,-70.80456084629986,-2.2000895720120752
198,-14.390510979821556,-76.97511526665767,-2.3852567296708003,-0.9397389801742976
199,-19.481709649873665,-126.35624074281075,-48.975098904338665,-5.772641383242444
200,-13.788443276949693,-186.9652732473041,-129.77606171311345,-0.1820731167099438
201,-5.888149767648429,-106.74707178078825,-28.958910107030533,-4.770149968666374
202,-9.37255709434976,-47.97517879473162,114.45464548806194,-19.885297395972884
203,-11.515741688519483,-159.69089094296214,-5.146535575506277,-20.98885174350289
204,-13.695665438834112,-164.3770128643082,-75.79355059773661,-15.573855279566487
205,-19.655069260435997,-85.7505521911371,61.43462456623092,-12.822239103450556
206,-18.91138096555369,-147.26556102803443,60.16123693075497,-15.514619589506763
207,-16.587280978666968,-180.68217618588824,0.5522670492064208,-18.844583182493807
208,-19.587417117421865,-154.47456801321823,20.677514815237373,-10.918668815604178
209,-14.88010372595454,-172.6196615471854,28.55021548247896,-8.993298703746404
210,-8.420509404080804,-197.27631638071037,25.856538014486432,-19.922820868319832
211,-8.938415920492844,-182.92338048529928,38.47439963568468,-16.475811314739985
212,-3.810742043555365,-129.1112170717388,91.74545388517436,-7.118625252202037
213,-5.560914754663827,-124.25890831297149,144.07976758747827,-11.041346601909028
214,-12.453584931834484,-198.16718238953035,102.7424692614004,-12.280029175584788
215,-11.655718276277184,-247.3781379397551,-2.547611363348551,-9.795632330919034
216,-16.86240735911997,-192.33992352875063,15.9115215864731,-9.701613820740022
217,-14.703404488769593,-135.35630735053564,152.521686639986,-9.663833437443827
218,-9.642856428181403,-212.601464726642,110.34612729342189,-11.865080242787371
219,-19.85655520763248,-267.9759755283594,-17.919095205958,-11.546687703579664
220,-22.327085565586454,-210.7251832819893,55.47338183550164,-15.907276781159451
221,-17.88272333839268,-216.087730797939,84.37501994182821,-23.00752156386443
222,-17.055573121499037,-251.75412724603663,-19.32272157259285,-19.121316053933697
223,-12.777723340666851,-243.5861668229918,-17.876217952813022,-12.093111960348324
224,-11.33740389844752,-191.9320596376492,82.08888848801143,-8.64226963899273
225,-13.23420180354151,-115.80213654731052,191.3750657257624,-13.323251248453744
226,-17.63338609956554,-181.58260021425667,112.63721435400656,-16.787662812523195
227,-27.525170597655237,-243.32486604948645,-31.720950127812102,-11.879481868367291
228,-28.63429108273704,-142.05589575422346,82.3248704035068,-17.904154867428588
229,-19.503026157733984,-132.30061643826775,155.11696396383925,-23.984687181349727
230,-20.435828189656604,-185.28068381836056,49.43892915500328,-16.126362277253065
231,-23.18562800233485,-123.45390908254194,66.06519287824631,-11.119411565407065
232,-14.013770552192,-98.63696961430831,125.8078746990068,-9.7627982776321
233,-15.92186034694896,-162.5328518752067,74.89657079009339,-16.34834927729389
234,-29.605881090232288,-175.30961196869612,10.664410897297785,-28.82509440275317
235,-31.377246394753456,-108.11181440978544,42.51889429916628,-22.323108578973915
236,-30.047328382148407,-38.80786437712959,188.0250324698864,-20.24921057264146
237,-28.627347854926484,-73.78927472609212,206.35201642022,-35.391592016472714
238,-19.80388661063625,-140.8639958818094,52.42947744845878,-31.484550218388904
239,-15.044033459795171,-82.41543011766043,88.56351184414234,-23.81745316555316
240,-15.214749688049778,-32.05238812393509,207.10626344324555,-25.57647711530444
241,-16.764605514967116,-88.1520618807699,127.6877040588297,-22.29440512713336
242,-22.426767352808383,-117.02076852327446,45.29212930961512,-27.279210794367827
243,-31.851960066400352,-60.13285397930304,121.5009518848965,-34.036456904999795
244,-34.18387067284493,-12.66222617123276,204.8333219231572,-34.40906220996112
245,-25.59103923206567,-92.97708050964866,82.39883990422823,-35.5214641779894
246,-26.84615539830702,-142.4557674106618,-31.18339021713473,-29.350368406885536
247,-28.750816647647294,-16.492278268327937,133.37186024000405,-25.11537306284299
248,-20.6538547231321,29.215944878960727,246.31034022348467,-33.80302641526214
249,-22.79107204922184,-79.60692914630636,94.69107901130336,-30.340770753726247
250,-18.402719773061108,-79.58378853293834,11.801275795907712,-14.553922542603686
251,-7.260331970785046,-2.7966590104042552,105.84163132263348,-19.07218807817844
252,-15.402928747746046,-33.78688896331005,95.22198975319044,-28.85839914852113
253,-20.6281341813592,-77.44664511579322,-18.983039189479317,-24.080680209954156
254,-18.872684547517565,-27.90664762747474,-1.7296720752492547,-25.9528172169521
255,-26.2870743234962,31.35183193694684,116.0262924612034,-35.521884099100134
256,-24.15410753703327,-7.7607674509927165,100.62734302307943,-35.89369072690897
257,-15.53682971400849,-54.43547226348892,-14.974251544335855,-30.016462382875037
258,-15.996782523958244,4.789154883939773,21.21243653050624,-28.68450425089395
259,-17.614100039048935,53.67721099901246,127.08205684251152,-32.530681701828144
260,-19.972007300239056,14.419198831164977,97.6799659440294,-32.05031969603442
261,-19.696131231146865,-28.747753096249653,8.921051532030106,-24.21620412610355
262,-19.03429573215544,23.38038836081978,41.54213249951136,-20.890796299208887
263,-21.17158830870176,76.47702358983224,163.88149860396516,-21.41164737116196
264,-13.830604027345544,18.19144605245674,167.44348490296397,-17.251989530210267
265,-11.225673912485943,-3.445061393838841,125.56929094612131,-18.446196475211764
266,-19.154847018624423,25.226801621436607,177.39458218647633,-28.53328581349342
267,-18.32449238072149,14.596019759279445,199.07814282004256,-28.714950836394564
268,-14.134359072719237,3.70424553414341,170.68495643918868,-15.99081630872388
269,-15.029207362385932,-18.20289938978385,156.3560603496153,-15.899752056691796
270,-14.202751737713696,27.572185369033832,218.2166143900249,-21.62587940874801
271,-15.883782583274296,112.86102095802198,351.277704876964,-17.502341250466998
272,-27.09986072062748,32.56151916619274,285.4418500664178,-24.111725508788368
273,-30.780920821081963,-45.62571079368354,108.05205042473972,-34.09956408571452
274,-21.91100969146646,54.0595299481065,196.4264980056905,-33.979286252113525
275,-19.59116998128593,83.93349432235118,287.7012102982844,-30.54278938169591
276,-24.01620682378416,-0.8846693568048067,138.7681841829908,-23.486410692392383
277,-29.966469983235584,13.63817809743341,80.8959976247279,-17.58944858358882
278,-31.757642263750316,58.84778192261001,134.56794491503388,-9.749819349934114
279,-25.991777590708807,13.655870563408826,79.98419444076717,-8.980562804208603
280,-24.56753947539255,-12.08043633919442,1.0527576649328694,-19.310068173435862
281,-24.12367240730964,15.534561921027487,-11.53199814481195,-22.607307469050284
282,-22.32815383780689,21.67567246570252,-8.208657161158044,-26.29128635695088
283,-22.694263537268853,21.196737088786904,-21.046602944494225,-30.241191872832133
284,-16.550614625259186,10.86592236859724,-69.35899414110463,-25.868677460748582
285,-9.7215557579475,-10.194182574981824,-136.17706823785556,-21.510385047542517
286,-7.47576597474108,55.02549276856007,-56.66034115210641,-19.271660778176734
287,-6.041468358947896,86.53051091043744,23.972448762331624,-23.557185716170352
288,-9.859004126439686,-0.9651472955592908,-131.96092024917016,-26.35166191983444
289,-14.215874184650602,27.151597252115607,-166.4849422177067,-16.51310387229023
290,-10.880623973949696,75.96932825772092,-100.49947399535448,-12.026864176616073
291,-7.175665205024416,11.913756204070523,-205.19652919640063,-16.320000377148972
292,-7.019358485704288,5.702247913111933,-224.05865055636968,-15.242663444121716
293,-1.2851450850284891,20.27054239140125,-192.1505571071757,-16.009764057205757
294,7.423971987416735,35.03800888417754,-206.47564201633213,-23.111034656132688
295,4.433947670113412,36.96069028414786,-205.3753904143232,-25.83926439433708
296,-4.86162857360614,-39.73813094402431,-311.09448941698065,-17.75339420529781
297,-4.239921193613554,30.426490700629078,-285.8266641024384,-9.3020277115138
298,-5.567303411618923,143.8536666999571,-94.51674583129352,-12.1691155891167
299,-14.07715103967348,11.29035761632258,-215.93450669117735,-7.42753014084883
300,-15.667202969678328,-20.001371374877635,-370.2208516349201,8.004044571061968
301,-22.002001712549827,82.68342683819355,-245.33221884304655,1.6423922068061074
302,-30.782297364989063,14.113732596102636,-268.23887810570886,-13.955966134453774
303,-31.623707113263663,-2.9785210397676565,-362.6026288788416,-10.04366611703881
304,-34.25287343529635,56.02573014178779,-317.1052718455321,-7.859990344499238
305,-25.96493496646872,28.27394497318892,-331.61678041965934,-13.299883184401551
306,-13.5166273934301,12.975140195980202,-369.6545097295311,-10.530394370143767
307,-17.998583777225576,30.04359094728716,-355.3212917158962,-9.400149106411844
308,-20.53629937900405,51.378193776123226,-338.3399539065431,-9.757622006087333
309,-16.688276201108238,92.28237687115325,-249.183945585537,-8.81183190421143
310,-17.209789712665952,68.56615849636728,-228.97562701255083,-11.542584696391714
311,-11.280233234516343,9.625778470770456,-357.59140813665,-7.182826206983009
312,-4.319022748168209,72.88850706949597,-282.8776016344782,-3.364663974687573
313,-9.764684992391269,112.19219607685228,-151.47485371149378,-6.930818800406996
314,-15.13123184487631,35.12890214507934,-254.3593854975188,-2.53365914481401
315,-11.507340841315454,22.365537494129967,-303.6780913894763,0.9277463641410576
316,-3.3732930342375766,57.471877064264845,-238.98641582400887,-3.8904264988959767
317,1.0577594933565706,56.761501810571644,-209.19385018010507,-3.666045097241295
318,-6.249347413184296,30.78148131753551,-229.18918438561377,-2.555641695180384
319,-3.048988423877745,20.130311187007464,-242.23110091130368,3.1494077377865324
320,17.10533521680918,105.19612673163648,-111.1441212783975,19.906997708232662
321,21.145138660904195,163.60801663808525,12.906346129922897,25.35999751972849
322,16.398956726770848,80.14926289883442,-80.73012835980626,20.896521793423744
323,14.922500982836937,75.39806471898919,-130.89530030431342,19.255409194665845
324,8.090833086338534,124.4807951230323,-42.19381659917417,13.98814818610117
325,6.240133866740507,59.93017152289394,-60.16093933299999,7.270951030041033
326,11.408276475754974,70.02831399353454,-82.52319805283332,-0.3481456024746876
327,19.902648200171825,153.04385922843358,13.18235741535318,4.192978423401655
328,15.043794567638544,137.68540247168858,72.86918606428662,17.716456858281163
329,2.0503315623500384,80.14677074697101,23.26740106282523,8.219943362244521
330,9.262151066031947,60.232199307589326,-45.51504396746168,-4.167140140707488
331,15.661525394498312,82.2797950488166,-19.63291710463818,5.32659025178873
332,15.19124643701798,142.56461984699126,131.02448480477324,7.2052613136474974
333,21.43075766457332,142.00872096978128,189.88886779654425,-0.8216403512487886
334,20.436601117864484,52.45952252839925,41.016189522255445,4.00553119095639
335,14.80465455661033,76.67323595518246,63.06892685231287,6.213099300053727
336,11.065866972050571,130.7158102215617,172.98847323318478,1.7663342695013853
337,6.6539361743271,67.7438071653014,62.72531825568876,1.5470215915411245
338,5.9266438540726085,55.24543916701805,32.64020050372346,-0.8951267981319688
339,7.341847718445933,89.01826117077144,109.4292381905252,2.501749928553181
340,5.589078574019368,108.8657369223074,134.15635679545812,9.500629331203529
341,0.9967513966257684,79.92730628233403,102.46217596397037,10.709081587068797
342,-4.49308723764625,6.882279830169864,0.2927424817462452,17.68331292576113
343,-5.0888284924658365,99.7664842052036,77.10873304033885,25.11994305770349
344,4.461190189333138,203.95405605679844,275.4139192407601,17.41702711951075
345,15.742167890883138,83.95656989770941,192.05925360505356,6.978176483564312
346,15.426339526278753,54.00269357301295,72.7832935093029,4.079219716217267
347,13.809817086053954,138.10065578640206,186.2411746919679,4.587146608793773
348,23.727938923628244,79.42661114875227,175.67015629968955,15.801345658584978
349,27.41735520847942,51.27764762850711,84.55584591822117,27.40278290052629
350,21.527682830997943,105.48455784353428,139.81770888069877,26.787946066611767
351,17.707354482045048,110.04176255053608,176.7780704938923,22.825238663343043
352,9.743508329513134,83.03810108778998,149.46112848693156,18.301018007516177
353,2.389840478899714,48.77504089154536,96.18794387354863,15.90404472073169
354,5.7419515919064,64.24144703993807,77.97352833440527,16.222993790428518
355,8.738784549910633,106.1675692689023,144.62554755594465,18.847540892130382
356,6.830185198705294,96.58067135541933,182.9392974487855,19.7996973917152
357,10.879537114182313,38.40886302484432,85.27412408479722,17.038343431848716
358,10.496284603133972,22.214345920016054,-9.660565150610635,20.11860649746859
359,7.454847614579194,115.45465765782863,141.28482447835268,19.080955061947407
360,13.88610052628792,108.03798787813868,210.97594250025577,12.593040399806114
361,6.20958674681242,-0.8439777154708281,17.22176440808107,10.675966362117492
362,0.9610415583083524,46.986775342724286,50.776757696905406,8.75357712195455
363,15.046742887983784,93.33484562701778,156.00671623292146,14.110902474157683
364,7.17450020691831,29.47655745485099,44.541641973599326,17.272703724556322
365,-2.5044436307453,-1.39059137692675,-5.837884476786712,12.297236828421774
366,10.841811872995097,11.835773671395144,31.418317187111825,14.175744747476529
367,8.15546353990976,48.17647831526119,99.26484658566189,11.406567576400448
368,1.5293702902336008,-7.004032602999359,66.20314572381903,4.489581566709603
369,9.762256146143956,-92.4131323780166,-82.65189498889958,7.70769426608058
370,2.4309419572136903,16.18531948502641,30.115917819872266,7.563145997173706
371,-12.081486309243246,73.44115758646512,199.5664417828666,-5.585709935758132
372,-8.442432817723784,-59.15074937080499,66.49127686565043,-11.203654173796169
373,0.3601731145856774,-46.85827936249552,16.890971301821992,-5.904957735470816
374,-0.2607689906608357,12.935182452667505,117.60614799079484,-10.340066646220292
375,-8.914681669684796,-57.70133050327422,57.84534100876772,-15.490884165537864
376,-14.409810198144555,-64.82014746661298,-6.224477167648729,-10.35088085922689
377,-9.155503273008437,-47.61216596886516,15.295801313011909,-3.8697651796173886
378,-7.021062548200916,-43.940672383934725,49.71059940586565,-2.026716907239461
379,-8.251687079079602,-16.77913814794738,100.71482319268398,-0.8061491663956986
380,-1.4246400828569676,-65.18365362158511,25.736587770283226,9.422941104348864
381,-0.2145381436657771,-56.528222666995134,-25.991814055319992,14.579347524617331
382,-2.1448741304348005,34.796623540401924,143.0849873226107,0.0275380614766618
383,3.322006712150141,-25.97952257259749,142.3499858211144,-11.476701951058203
384,0.8213113205256377,-78.64831010700436,5.241058469444397,-6.183908507973683
385,-4.751495710172094,16.02888321626233,123.58450628475111,-1.98693331027971
386,0.0377504943699023,15.1818077431235,184.40540414198767,-0.514003448864969
387,-1.334231174316301,-54.6305032587552,67.75595903201611,5.855898827754572
388,-7.127141914115782,-57.389565431076335,39.75060594173556,9.134552576284475
389,6.640398143836137,-40.08003113366431,70.39818394467875,16.303657262877095
390,10.802040575219507,-16.212770591955632,98.55142141287796,18.422426520017325
391,-14.857331166735094,-26.590200699632987,68.91875094232091,-7.779510665135604
392,-16.60967912038177,-62.73830774781527,15.694805032595468,-19.201224680513405
393,-4.766467040084535,5.919118544552475,111.05414225784624,-7.677986709451943
394,-21.80909372329188,68.95314290112583,214.68432246006705,-22.456226486581727
395,-25.73040235762528,-17.02301304473076,97.79775990811322,-27.0241798631032
396,-18.68608310624768,-21.256101366336225,27.261638208256045,-12.41610864059112
397,-28.01021864423092,51.21477511007106,114.99071328586432,-23.469376227461908
398,-25.63608952804861,33.31909834820544,122.6855488445035,-30.840220454949304
399,-19.61476323113311,27.893462896929123,93.47409380153476,-20.774181195505665
400,-18.324582367909898,38.51804325450212,67.13683668920021,-18.81980332481908
401,-11.130458907504362,44.66691141988849,63.43578565914868,-22.60414343393495
402,-6.945113643385412,35.53509019588819,79.10704470986639,-18.547674632558483
403,-2.7367849314177874,20.250609117472777,32.6155028406356,-6.850665171412402
404,0.3589485330849129,60.88818180587259,38.9102979480158,-1.824725686245074
405,1.2427498898359772,95.218539676629,128.64510416591293,0.1217700262495782
406,6.369485428967892,61.41960114578251,118.7062128966063,7.924415762397984
407,12.870820774409369,6.966793456405867,11.415628826551256,10.792998208795323
408,15.288467869038868,43.0366551791376,53.72013887252251,9.136335389375745
409,11.85745084966038,87.41661010467215,129.5627367121051,11.048530142237723
410,6.641627970166155,41.85532286579837,53.48178433426074,7.3086086295516
411,2.4724060586377163,19.894383415259654,5.129354093915026,1.8182035009085664
412,3.913433630725194,60.32433997257613,42.27049935335526,6.107549672866298
413,5.806464591594704,90.3494817217288,99.193274858917,9.179302429118252
414,0.4028661628544796,39.73982566370978,52.260657320017344,8.091972756621544
415,-0.4350529810180887,-9.743357753177406,-60.75052300597599,11.337741859162634
416,3.5209105387621094,82.46223153593019,29.818539585350663,18.02039796077588
417,2.9765751498998725,163.72657055451418,209.3407640188525,15.088928602148371
418,4.436070016461599,56.09836505621206,120.2712602730171,1.4141233427726547
419,3.2240239399543498,8.977665377955418,-26.01597297069384,-2.395719039726828
420,-3.457442584964156,86.92702994088177,59.00156174140284,5.960598490630218
421,6.814643485857232,39.26616452619783,61.72864252963336,16.28052580075746
422,25.54720210412779,3.0507156090752687,3.724889326345874,20.774406031232505
423,21.852152833038417,52.31097090715775,82.47207930337754,15.731711740685569
424,11.26779581134906,38.40109580403077,86.8244342963153,11.236250706897408
425,15.63790162272926,-4.4684251302387565,31.48662091573351,12.59989284389303
426,18.534173756670494,-11.005929241800914,18.805367769586155,13.592332806554625
427,14.403348899293633,26.090368573582964,56.2576579109882,11.50010814275447
428,17.46493582156836,22.369742901122663,121.98225556858232,9.79589031112846
429,19.5392789126563,-41.11735982392565,116.6242989099701,4.902516157155333
430,14.45931915332767,-117.32537761054118,16.779965469555464,6.354240385568119
431,22.98006758966221,-155.25799275556346,-35.74789911080734,26.98887213965645
432,35.07407677722222,-82.38251586185652,148.4313091482618,34.888151098799426
433,24.69179264237755,-89.98101958297775,237.27984939169252,18.03675648188801
434,16.362851475350908,-213.15786483814009,44.22776008371147,16.4509557919082
435,18.77672954993613,-196.2178283293906,69.89768277248368,25.09355365832744
436,10.680073822921258,-178.5664284561935,187.4616222695622,16.830038950414746
437,5.6288423318910645,-284.811296104599,53.14638577704318,15.348725162752087
438,9.337648681808789,-306.22822452144464,-10.526567269174848,26.037083198301843
439,8.447477311157854,-220.51563240496037,134.22504560195375,20.36695647303713
440,7.96525427125016,-220.82657218044915,215.43070083868224,10.966407982676174
441,21.032455739747093,-335.3657390871231,74.97439290495822,22.44757844535343
442,33.09434436967422,-339.8607535418414,11.411262576351874,34.49174456082983
443,26.150017417472554,-260.5264230777393,160.91911914816592,27.05286735286063
444,21.853645099909045,-288.92362905529444,171.64640557119856,16.23511213164602
445,19.61061776817951,-328.4085557931685,70.69645674573258,15.835579787948518
446,8.532190992526012,-282.49346828814305,111.36802913754946,15.980012916726992
447,2.145915238550515,-259.3636370569002,163.57486519910162,9.048240216026898
448,-0.7837508575903485,-317.3509956851922,97.61222082120366,6.631511119587231
449,6.422750332581927,-337.0136809272226,38.38689465407515,10.342125955197844
450,13.996920126926852,-276.3281173504656,71.97216896124883,9.114638222265055
451,7.460672224347945,-228.2293836829922,156.75788211548934,9.186681073435466
452,5.797988126243581,-259.66737600982015,140.82669283554424,10.72659001284046
453,-0.8552205612941179,-308.1759826727357,11.42164901283104,5.423644970331225
454,-10.16962595426594,-238.65477775329785,29.575187346548773,4.237146741550532
455,2.0442016979213804,-170.7719510330644,141.784181681287,7.068332988477778
456,10.687602608697487,-165.1048808637861,70.19392209808575,4.648812148865545
457,6.133591436984716,-59.77672202681424,-32.91173550253734,1.3405396407179069
458,4.557489296712447,19.13938821476768,62.24610052263597,-9.483170571445951
459,-1.00369736290304,-11.993080333486432,116.25659017759608,-19.464456231566142
460,-2.4849456930242013,-39.68984391406411,-9.467430818418508,-10.376810010508052
461,4.833831823052606,-42.38577305027866,-38.48115990014048,-4.007423684190144
462,-1.8525540859991447,14.494226790353425,64.06822739297058,-12.664590472559212
463,-12.9027444201638,31.67496074928204,109.25058977637671,-13.964034731587162
464,-9.207663608758594,-33.123197672946844,35.20283069368452,-6.396846367875696
465,-8.995745323743904,-18.08517457570997,-1.2635688699083405,-5.380801463252283
466,-6.214271073928103,41.8795644484926,136.40419700636994,-9.469294864262338
467,10.85982276102004,-5.622887357778382,146.446160492138,-17.658538945077453
468,10.31114537511894,-57.38844386153505,24.28321621567011,-23.213475511976867
469,-4.476662727771327,-9.227394830726553,99.06237825134303,-14.952684963980571
470,-3.389065446826862,-9.221564725565258,153.25573503645137,-7.4045038758195005
471,-1.6639661951048763,-60.49570268508978,73.9831832308555,-7.467525819534785
472,-6.148898112456664,-83.50911993806949,46.91835555201396,-6.121673997404287
473,-1.6610687745269388,-82.68986704663257,72.65420065599028,-3.0127109822497005
474,1.003119172775769,-35.59833081322722,141.74949518276844,1.7499634134874211
475,-3.434806182878674,-48.17854848119896,129.13145902438555,2.130735409387853
476,-2.0191425025259377,-110.24569075930047,26.69400122575462,-3.695697505230783
477,-1.0188156767108012,-28.329765207134187,117.81829463934992,-8.6021066566027
478,-6.453207397949882,24.907053667353463,272.1700475731632,-8.367757858446566
479,-3.173577018038486,-105.1363743727852,144.52467654109932,3.248410684143892
480,2.4393236233881908,-94.36191877364764,65.30469517037272,13.101029241704964
481,-0.205422165847267,-0.4755140324996318,204.5792739879107,7.596283584440243
482,3.395612608044757,-76.01488531965879,178.08831205882598,-2.330384048837004
483,5.5943726890400285,-98.41164420577115,108.9458559055347,-4.836938991720672
484,-3.0945494797924766,-39.93874427911942,174.83391761395615,3.092340738294297
485,-5.821192102637724,-61.85130790216499,177.12438881432172,3.330564309231704
486,-0.2580191899614874,-90.95134232196142,137.3710936551215,-3.056683923714445
487,0.6609015349531546,-86.26391033199616,127.29148579773027,-0.3310039374482585
488,-0.4714401543169515,-83.80857410520548,115.2674695928581,2.1810833778290544
489,10.163741796277463,-16.108953237126116,243.48189489205836,7.994438281224575
490,19.66032013365475,11.331301202764736,334.79871420247946,14.501453836375733
491,13.63214793446241,-90.4408501922153,153.2539956184337,17.74292777356459
492,11.46240055434464,-60.45599604197196,138.05876854551025,20.535236469848314
493,16.358941357582808,11.51043687335914,244.262083083624,10.645441301167011
494,17.098491596174426,-50.250662232982,125.42896605748685,1.7319155434815912
495,15.096289965251344,-52.96275370370131,76.97337985481136,3.259012879425427
496,12.93111986105214,-12.196278611547314,133.33949685283005,5.695068315617391
497,14.85546891822014,-11.919513384113088,109.42067820974626,9.298020774469478
498,17.187382117990637,-29.771079706551973,35.42682487319689,8.528053464789991
499,16.140318763107643,-37.89033810078399,-1.121514297905378,8.64135281072231
500,12.133032362398808,24.924343939637765,67.46692833979614,13.029330086967091
501,12.2067920526315,86.79965076647932,138.42725369415712,11.772795866592787
502,16.874953775695758,40.037323196884245,78.20787886355538,11.31698839715682
503,13.111892206550692,5.116771541070193,-20.72687141248025,13.947012056058156
504,19.985512800645665,68.74195594881894,36.267036507837474,13.065344041693606
505,37.319258971110685,69.99172049295157,98.05407842830756,8.937826395806042
506,33.029802506265696,-0.6639869557111524,-26.7876545090694,-1.9979945164814128
507,24.796773816618952,9.035788794106338,-87.21324661932886,-11.730829582273143
508,28.534843177490984,78.1299742377596,43.81743933889084,-7.2159182295145
509,32.32320405858627,61.51479062408907,62.07063027471304,3.675968166979146
510,34.71904387975519,2.3941284469910897,-69.33384098880924,11.168683697716917
511,32.40561586790136,48.570714840258006,-42.40349900815636,17.533520482989843
512,27.24846561376762,100.09342266700696,89.00272559537552,14.556204877633718
513,20.520472201053053,57.84413507569116,66.08994342200458,3.4271598152117804
514,10.50540767388884,7.872001078620087,-52.65961221605539,10.91859077985282
515,5.354066952990252,34.11015154107008,-26.30984124005772,26.00664335730835
516,11.43057546018099,84.02117977163289,80.69552003243007,29.24014935118612
517,16.908758086836315,45.95803863159381,31.77016549790278,29.14546234635054
518,11.302233859940316,4.045817480422556,-36.45731142768636,22.89542667333444
519,9.505754497440648,68.78322305739857,60.07969130738638,23.33126512539457
520,13.006589639815502,112.52864803897684,150.8029708340764,31.358306662805266
521,12.730572546832263,20.41120231244713,52.55905904481188,25.49511896970216
522,14.006283862516284,-24.00934219395276,-29.46235567238182,18.74850026977947
523,18.866984230888196,105.8173228300293,141.27892169426195,17.6761180547619
524,23.54260601133865,150.6226457299199,281.05040321545675,7.109783173975302
525,21.962653455047985,31.80449071410112,157.91182266152464,2.5831165457784664
526,18.97586597825284,28.32152339542517,95.2962796369102,14.999339227710152
527,14.45387255398964,95.42560126277384,207.46762191457677,21.518223950173702
528,3.607696174789453,55.46369303547544,217.4238458899781,19.592778506266768
529,5.703144566141418,23.353593224543147,140.18393367365934,18.47884087452257
530,15.191453283725425,57.64991460024612,162.18155500199646,19.037385579838883
531,7.222357305858168,90.70582068996735,251.7180274561979,20.895756164041813
532,1.0189439613604918,62.56676285684807,245.60554522369057,13.962794529448727
533,1.8625057471508624,6.57196709048003,133.27898827567697,-0.1602164801588514
534,-7.132748262243695,27.83872076752596,104.86466245469636,-6.18564881052589
535,-9.72655763833609,102.86049576109508,244.531826202292,-2.895973032718757
536,-6.300284134689719,82.83318116283044,293.41335882875137,-3.779846962876036
537,-5.305185656136018,-4.992659599462058,118.02155325748026,-2.3353369496762757
538,-3.253059948488953,47.84650609025266,112.03352743107826,6.104673423673376
539,-6.509350372347399,123.0714352792711,287.471191664692,0.5712996064830804
540,-5.909370176450466,45.703830612357706,235.05039353482425,-7.800654538528761
541,-2.693718826107215,-3.3348664463264868,110.1749389655888,-2.4855623367766384
542,-0.279433621049975,49.70862948364811,191.0104550658725,0.0801324310887139
543,5.7211566085898085,72.52110338961938,267.93311036750674,-0.9030298227298772
544,-1.26698369353835,24.12330902129179,180.6312854459975,-1.978924251161516
545,-11.257653534106794,-0.1142353920149616,142.04044851311482,-3.0304370058875065
546,-9.385780100899863,74.66615507414099,251.9691345777828,2.543911842192756
547,-6.06447507449775,129.79578812461114,350.4868369810283,0.9478691922558936
548,1.458951267588418,43.83650952868629,267.5386202081572,-0.0240963275864487
549,2.008928144336096,-21.476555231201928,124.1714579728432,12.149474505757098
550,-8.596004327162518,61.47497699118685,218.26309216488156,14.296917655665313
551,-3.0253968065953813,93.12484266998943,308.06270730216056,12.11902339369408
552,8.175865919169155,26.601262843993027,171.04011172475293,12.953609134347062
553,5.263090425345581,53.2795799135929,150.50369117804803,7.471889191030641
554,9.549268294111243,98.31658642162802,230.36534904665317,10.382626948266989
555,15.011648498955765,52.06787283852464,179.79193962807767,15.48104304294975
556,0.29592769354349,32.74591066763969,119.11847767978908,3.941824738983996
557,-2.8329501984262606,58.97075492324075,117.03120580152608,-7.264876553468639
558,9.672671074949903,80.53832638816675,142.11515040369704,-0.0962992372369626
559,1.7046108776557958,86.72043207817478,166.3536777331028,13.541157069455949
560,2.0558886075014016,53.32103957718937,100.6422592191957,22.268427729039104
561,21.03870577787165,53.37002497928916,32.88329548481852,28.832561007977347
562,19.81165265799791,141.86552076466614,182.21893381606787,31.603154420809005
563,17.20022252727358,154.45578258071328,278.384335514158,26.932453020868707
564,25.59873763401993,66.94628085946897,70.08693271130323,26.147505147833726
565,29.990373079650453,100.54936479823664,26.46742799552157,36.53209880518261
566,33.29070774711727,154.9246759727248,123.30463389167562,35.74171076215862
567,30.07276417905814,98.41879027889809,-4.009271586313844,22.83620201633312
568,24.276489847528865,86.02798234368674,-91.40950107108802,16.064556218247162
569,21.53849462530343,111.00133126688888,-92.98428966896608,9.244681825482983
570,25.674398441406083,138.79372423322638,-114.53072566399352,10.315971377232929
571,35.291595180358854,145.69363996665925,-140.34366174321622,18.87841385701904
572,30.148160175711386,88.69498546182876,-272.1430268124677,20.848991252220003
573,19.506833876337623,155.5058772287448,-265.57643294660375,21.81040857746848
574,15.294155640454846,241.05717846687185,-136.5926256221719,20.03126069997961
575,13.19615142296243,106.32382530742323,-335.81487913709134,23.875564599133213
576,20.125208982644835,74.42052248265827,-521.4748567920178,28.521610178577248
577,17.786702068551676,205.27202248497636,-354.6410789284855,15.41775690081704
578,5.522727902090992,175.08662294090027,-325.50014279130846,8.331778443403891
579,10.426794455008348,121.91701695939992,-478.856971477624,12.62871256348444
580,13.299778812026489,166.47036432678578,-480.0648584133014,9.141041742666856
581,4.696954322120291,152.5258358706487,-458.7687489981763,7.7938784754951485
582,12.670879904777394,124.4109083074145,-505.8378002974205,11.59893939930771
583,25.79254094588396,158.48693137982627,-485.496801127214,12.981761386879953
584,17.1876151166216,191.8669958080864,-425.3222759719938,14.307869397554896
585,6.035155038451194,197.97360442066565,-369.42598172603175,16.81425312416104
586,3.318562100714189,136.95836157386657,-401.0147225423716,18.99493614648236
587,-6.692849487400963,72.20489421446109,-544.6439243387431,14.389218087861082
588,-11.428830553704756,151.0950897814473,-499.8332400158979,5.9659479216934415
589,-8.457175468400237,227.22020160523243,-304.1263439641334,2.5250189280923223
590,-12.30070243193768,140.1795229932759,-357.52293317299336,3.413896971673239
591,-11.904899940738687,75.12224030436482,-510.1560080652125,5.923452054354129
592,-4.086367767275078,118.1185480929562,-442.25863454816863,2.8639219495817088
593,-1.652886945856153,108.48577585967725,-398.93988788407296,-0.275630382457166
594,-4.124163819418754,59.984163880115375,-491.37824687501416,3.355054111016216
595,-6.259391766943736,71.01607034518383,-479.9180820183829,7.660765685272054
596,-9.929790424866953,145.34802386711817,-348.8105878792703,11.407631744194076
597,-8.6465958050685,187.40775191265857,-237.9905986036174,6.190901786467293
598,-4.070219792236458,111.1692958487547,-310.805230113212,-4.59026124025695
599,-1.2032749774953118,116.18015865434428,-382.3834435930476,-1.8752708910906224
600,6.649400093083386,202.84768455981973,-255.84706041961908,8.090432148426771
601,9.909476772867492,164.27139549021376,-235.25650240993127,7.720131039299304
602,11.71622775052674,144.43288095702883,-320.75572014739737,5.485053386873915
603,13.69780548493145,203.12275554565716,-275.8568590739742,11.207036687381333
604,4.311407733912347,194.6093701030477,-221.32883223704997,12.705884229406363
605,0.9491142362967366,127.73224567028228,-300.1318210116588,10.05546009716636
606,0.1636390554049285,141.04553920018952,-352.5274716052227,7.780666966398712
607,-1.5387246860482264,221.50775026041083,-259.00987029774114,5.495837633876363
608,13.782383289348218,198.7514686647337,-239.68825995130464,6.112293497557403
609,19.56441818919848,145.28133547422476,-320.9608069220558,-0.1176375278300838
610,9.004933992197039,122.68022760754684,-412.99107161629945,-4.50254972287803
611,10.567134047974832,106.48245914804284,-480.25583461811766,8.137928340540384
612,13.851139369711746,198.36911299062197,-288.48006824217737,16.7621743746422
613,9.433514365999145,206.75103585340548,-175.56447658129036,7.743548444806947
614,10.115406224300386,93.66360810981132,-375.93866599118337,1.4797197929292452
615,18.179062916446128,126.81192768999608,-344.2674066568725,7.7881437103351345
616,19.523231493512867,151.3855787225766,-260.43646514602005,8.50523040164262
617,9.549938947558983,84.88062159577385,-369.2424832144752,2.7738758640625747
618,7.263311259652255,68.04990594566334,-381.9890889436938,11.065084956164355
619,14.063938833831344,129.97622111957753,-306.8212397075258,22.85030557801656
620,21.85224898821616,223.10305915534263,-117.55402423487976,13.908903702016689
621,25.225553414289607,128.76023209135747,-142.14658210473135,1.20759941743745
622,14.5750912065414,37.22819027531659,-359.7221382930875,4.871551304313471
623,11.336086461422385,152.22735069412738,-200.2521952246316,5.762210758504807
624,20.01895152423822,140.4829071284621,-89.4100016830489,-2.211156962541281
625,17.86713067938399,56.48158761358354,-244.7073763194494,0.8300694456120254
626,12.444186904889648,99.77597131673248,-222.6401685238816,7.7577086914971005
627,9.098923650351937,119.00419734901516,-154.42920588003471,3.7831701757240808
628,11.962915460499062,76.71587207756238,-196.15375988185409,2.104192486120155
629,19.61451715221483,43.6726680911961,-281.3754870747216,5.7507739182328805
630,18.386813058816188,74.52854719787138,-314.13477403251454,8.501721701395581
631,20.47456946370221,122.98268306977116,-218.14589971490204,15.286754219298018
632,22.891775137650257,86.97642689401982,-190.22685054549947,16.957465884523117
633,13.73177196700999,25.4779381279659,-311.7418086747639,10.847611004370265
634,6.493495379043452,34.620537450391566,-373.9422381776385,6.623419522191398
635,12.041796198558586,92.02044831801322,-255.8852250589989,4.359289118714514
636,25.27384367241757,54.489083219115855,-236.8616948500276,10.656033497070894
637,23.92165389931324,-28.992162935610395,-428.3648061789572,16.80806173257588
638,14.133223093267588,11.277713326824596,-423.2374180234037,10.2056044475612
639,17.351868389290757,29.78999776567798,-346.97967765666544,4.916984666946519
640,21.634586433734512,-28.65980003826553,-456.7777435979806,4.8372235587157775
641,24.11754488373117,-56.207720747508574,-528.5963455364108,8.739361252817616
642,19.150735331568285,-52.53641502131359,-535.4898129482754,9.00854228885146
643,7.981716770285857,-11.663840855937451,-472.06465479545295,-0.4539842164012952
644,17.89383883176197,-57.3372985739552,-501.9030733820982,3.581586460422841
646,13.137004644158878,-47.53349879026064,-630.6490319687873,18.57443157034868
647,8.661815471852606,29.945238862157566,-419.38461159868166,10.063706450622703
648,10.163670248060953,-101.65861264435809,-568.7141735642217,7.413237547290919
650,17.18628024008649,-36.36494689958636,-593.3098729061894,6.971813630814722
651,10.043705248586775,-105.5536011858203,-627.3376541533507,6.834837893227814
655,4.322346656364971,-58.29325726412935,-657.2150135110132,10.99273665628425
658,-49.54959920683177,1.829919073934434,-587.0896098315716,-25.15770031895954
659,-53.904840418850654,-41.4686365344096,-528.8248882028274,-42.96719095741719
660,-28.776583475610096,-87.23256853294879,-674.1769200954586,-18.36641150200012
661,-41.7734697230444,30.59472852950421,-523.1220065765083,-24.469689248566283
662,-51.040407041091385,44.119673744309694,-378.6499787326902,-27.83939664086938
663,-40.24111436717794,-28.50702584783721,-491.5602262299508,-16.390525481932855
664,-49.584435363227385,-20.027981004004687,-501.4141522911377,-28.770906794110488
665,-58.72935195586251,-0.8423236665130389,-419.1777266240679,-40.271435682851006
666,-50.05616466612264,36.28759472751699,-328.61158131062984,-38.07704124722659
667,-47.70506407015637,43.61900682203304,-272.37040933640674,-34.84876443823305
668,-56.27434540570175,-6.090049046862987,-331.8176633147523,-35.268740671584965
669,-59.37151025076673,74.42024699654212,-221.77738557988775,-39.04622883706179
670,-54.0855722123415,158.08900472689857,-6.02070039184764,-33.944988602183
671,-48.857824176364375,61.835094659763854,-113.6803236999549,-30.12609573157169
672,-41.1939350976063,66.65820393851754,-196.0078404364176,-30.43903648880587
673,-36.02115517805578,145.00667342761153,-40.69590189773589,-27.91646071384821
674,-37.67512848532715,97.66401415634756,-36.05621445598081,-35.39162539747849
675,-36.67119073217691,89.04870411384763,-74.9442514674738,-37.240747399966494
676,-33.632872508114815,122.34703127807006,-33.30211716424674,-21.950812341514396
677,-29.456107992577017,129.56767460599076,4.2792387288063765,-16.518256229282997
678,-26.169193246150822,125.30045301593782,43.10075701912865,-25.77654301628354
679,-29.3475292426574,101.2109894199384,-2.2348045222461224,-31.341381523445307
680,-31.43934960826482,109.22353466812638,-22.763094979338348,-31.9641833623391
681,-30.547603412747776,152.6677957293432,128.49090457009152,-35.71082205162384
682,-33.796481254252285,132.3148442049569,178.52841003378853,-33.42221356164737
683,-30.71913380426849,62.11413721230929,14.805202865973117,-21.31617470661149
684,-18.920144409052227,104.33592146915908,46.04851046809927,-18.2115134757878
685,-16.904643182344444,153.83226154447766,179.8399624368176,-17.942180222096795
686,-21.03056403855044,95.05870084516935,92.56076740054414,-10.446388446533092
687,-16.579054571620873,66.25857372648898,30.509404263924807,-10.4152447574088
688,-13.327102212415411,77.89243061901652,71.47210544161499,-12.985769353032085
689,-22.87255138341789,91.56905714140156,101.1488255057484,-12.686015011495329
690,-28.302844552230454,81.00259104490397,84.0949110626243,-14.799565094068384
691,-23.71313312594793,50.58871566056041,37.83582474896684,-20.05838304927965
692,-28.32022107132434,79.1586981487635,104.53420165553688,-22.97891426428396
693,-34.19604256463936,103.4880001595302,169.7219300372526,-15.8331100014002
694,-26.195468361827807,34.4152865386568,55.22727950569242,-13.93578352404802
695,-15.717454116447698,-24.36149694712367,-88.16038232110441,-13.920120447382942
696,-15.424398371551431,81.80707685797825,28.81510515138507,-6.196931665112061
697,-10.381950224122193,157.59773750111344,239.4903978984803,-8.093259402867261
698,3.5460661303823144,29.15539589602849,106.81393646169454,-11.560266400847468
699,-4.31231968846987,28.31025628640782,-0.752432401292026,-13.19745060113928
700,-15.439970474657455,101.55209011817352,131.81779520306736,-18.94324203388169
701,-10.865576187199622,7.082089011848439,54.69045305065811,-18.442060672976368
702,-15.754185523768683,-9.46336011379026,-53.95926456386224,-17.092128108906763
703,-15.985038479662762,29.486787498928607,-6.543187065515667,-12.51473351093955
704,-9.83093234680564,56.89985173085006,128.8175588757731,-6.960051507558092
705,-9.400420026453505,80.15728359547211,227.842848402448,-14.723649076808217
706,-7.842582055138337,-18.20173133356729,37.70800504507497,-19.274324397771124
707,-7.843873977199109,-16.57601188478293,-7.0884805750101805,-13.938597596214096
708,-1.7482561298838846,41.55988906370476,139.7226267713122,-10.36407603549742
709,-2.7281230610260536,-41.15704934619134,28.32413710281253,-10.687293318962476
710,-20.68008830933832,-69.20307129417779,-42.277741679456085,-15.34958893791918
711,-30.709641933848616,-27.745908127340957,38.07530675129965,-17.0270289461223
712,-22.589476774785,-15.393222852726469,73.6929995752871,-14.058204149190717
713,-10.709749138160989,-61.11753201211104,7.513453524094075,-10.090450189381954
714,-12.101750067748071,-99.15752093424088,-97.55078626051544,-7.359555963688763
715,-13.162475918641576,14.435345869453158,53.01571574341506,-5.44574624652887
716,-6.411790517879126,63.2738491386408,208.0914394282736,-1.3085238395433407
717,-10.137646885119466,-69.38979833730264,19.060610085725784,-2.1505456986233185
718,-12.049380643478798,-79.7151478085434,-69.80597019242123,2.9828495331312297
719,-5.150089363316511,30.30072874488542,118.31239171279594,14.133898922911612
720,-9.940065305992904,35.71297957299976,167.51089750090614,3.761079215804784
721,-14.433116753287322,-7.549744839547202,46.12419602274895,-3.931565072114609
722,-2.99810566103406,21.75920625566505,35.11631324561313,8.373109833904891
723,6.758412119805144,62.24016795295756,120.72719555301592,7.487965904434532
724,2.669039664360753,30.413444863050245,109.8394513600506,1.0257833120558644
725,-6.175513835125457,4.154704246495385,16.61923007434234,3.8451419792036177
726,-3.698530809200747,49.72003459499683,9.144698680378497,2.669839034693723
727,-0.0872281551892228,90.97203147574328,100.35818683169782,-2.27825372244115
728,-3.818546066609997,60.688274713931605,98.39806545618922,-10.417414296527568
729,2.199167683011183,26.20705751690548,-38.03321289597079,-16.10793361771357
730,8.730212010330433,77.29291846288834,-65.72230902966112,-9.604170892052936
731,7.598191006378329,119.13454712799285,40.1894614007324,-0.8038096100681287
732,9.113083200449182,71.36041059740819,18.883685569511726,4.577273363353015
733,8.43247108120704,47.31000997079536,-89.46722520166077,9.386350514581864
734,-1.7110930218623253,84.94761420157738,-71.79634413914755,8.497004492612177
735,-12.98632423050367,102.56204967468511,-38.63549294578843,3.675810660221032
736,-12.131014202976075,64.66231535375118,-135.2288226452656,-3.9434257050670567
737,-12.677143505203276,21.83671342022717,-248.52468357491307,-9.633593837697845
738,-20.999796716034325,48.11146244057454,-258.13834364851937,-2.897403459504858
739,-16.03977750361446,103.58293816493824,-187.8937832498923,-4.02722155171432
740,-6.835646825413278,67.52040273114108,-218.21814894489944,-14.552042047544091
741,-9.884774013855347,-14.071162194712088,-390.9917541684117,-11.6502735410686
742,-10.418915814629145,57.54594694112893,-354.8769108951092,-9.643825247640052
743,-2.248858184677374,128.81311396241654,-209.0225719003938,-13.007884987302532
744,4.497503123835486,16.264363298541866,-383.980923215393,-8.714583631885034
745,5.047673261760792,5.070089300861582,-527.9198402832262,-5.167126003365411
746,0.821433801564126,82.5216346521629,-425.14089235127904,-7.155176155629306
747,2.999267551149387,34.193496064981446,-428.63576464238577,-5.97578745703504
748,13.930893299555464,-5.26440318103414,-546.1891074292362,-4.681563482175989
749,18.42000652433489,15.003006658051165,-620.0156401831191,-4.133740142966417
750,9.712536905859452,45.07399608299602,-567.8205493849237,-3.6932267907432106
751,0.3305995463306317,46.59652526269201,-501.6463588245679,-10.06850085534461
752,5.194787460597581,-15.344309930573218,-615.5871228356846,-3.4229897828809044
754,2.2864340582345903,37.351831317530014,-572.2113204975612,1.0276278519922926
755,4.808227813882695,-6.778355644084513,-551.3953464613296,-1.2411300380590546
758,0.0043788210168713,-13.989993000635875,-592.3304191126954,5.412259513290337
762,-10.768772362578602,-33.844425552058965,-643.5386831250507,-7.8013487296884705
763,-5.645130379372858,-48.98594479786698,-640.2830318477936,-4.100467379565089
766,-1.5311474667760194,43.80459292314481,-512.36350842705,10.2005153645041
767,6.505177853767236,-63.21162513911258,-538.8144694785587,6.839687667979888
768,29.72323115546897,-107.97864740376826,-674.1860953555442,24.347779598203488
769,13.0646862568683,-18.55398834659718,-566.0597259819042,14.167761085995153
770,-24.81239873215236,-62.65589693153743,-506.1490306279157,-18.94026322840364
771,-15.148638187085451,-96.62292410759255,-569.3904561293311,-7.40839278882413
772,-3.7856625231943326,-47.24394686636515,-510.6347719808109,5.962769020385167
773,-15.425055945474014,-48.62790655903518,-440.8507773650345,-4.993196576149785
774,-11.231720745417988,-69.66740680590738,-443.1471908658277,-4.772291722525552
775,-8.111067537523923,-59.58026021323167,-429.9115205532871,-9.51750464872748
776,-16.36369441181887,-11.74899383005686,-350.8304448616691,-14.139400051797566
777,-14.92574279798282,10.211953619495034,-252.4764003737364,-7.6393769377609715
778,-4.465936609820346,-33.10084111383185,-237.92791654984467,-9.016162049647392
779,2.436337568680756,-84.26746927248314,-321.85908634611405,-9.066649723499722
780,2.9072015204437776,-68.71456847875379,-323.72842995799147,1.362930012484867
781,6.419538905043737,10.371168619720263,-126.27440791472328,7.771176990579988
782,7.512499070151534,-7.186947716167197,-54.85162600374315,2.973046569593862
783,4.792902075329039,-93.56288063758984,-207.806516997749,6.569217504373228
784,7.427857366521493,-47.74855778669007,-149.07432529027574,14.79621685078382
785,6.842044210046879,-14.691756171174347,-27.971278361976147,6.819264526293409
786,8.667495979323576,-78.26046506641433,-124.00352269795258,1.466265536218998
787,12.34778683377226,-68.40676501393318,-121.39437884988727,6.510448858847667
788,8.054686782670615,-15.917617581086231,1.864618890103884,10.752208206398793
789,13.17910120436136,3.6324539182242006,73.68434000504203,12.631610486107093
790,16.21041478870029,-30.15737064089626,45.067988089402206,14.461666156534193
791,7.85539910470834,-64.75020769191906,-15.532533055520616,23.0478804657796
792,10.394357950142876,-16.728084567235783,82.82969857985154,24.8005448124386
793,9.726565919125278,-1.141241118311882,149.51395251287613,10.995160718201078
794,6.058954285472282,-53.14396921545267,51.385532042593695,6.978695197594789
795,13.158160418133775,-24.468866941984743,77.13541517057456,21.541845181927783
796,13.480440944978907,7.0032997915986925,176.57179635536158,25.55761399871335
797,10.1328722459657,-65.10609860531986,113.68411086942068,12.416023326630238
798,9.02222006937518,-89.1541546988301,33.93994975084206,10.971607921706893
799,3.385994001364452,-33.20063640805893,79.2912093611667,16.046232522941864
800,-2.999856263471884,15.2865958805196,235.42589446157217,12.073706006030989
801,0.291606649334426,-4.983162311604247,300.5704363177065,14.517874822817248
802,10.795352793400523,-80.44631199887954,163.44981157389702,22.122039989855693
803,7.785835719463648,-57.18314180383459,184.5066422199889,25.524210182866227
804,-0.5930369953421177,-1.139101616339758,320.85389420297,26.67006513387969
805,-2.077190091884404,-35.694012206746265,284.72372517263284,23.123341966464068
806,-9.799401918244255,-67.73942048451863,236.5257266984263,19.17276534210032
807,-9.202083534692065,-31.010181851452217,287.4787544685678,17.008686522625794
808,7.015774445972056,14.571345922537148,395.91366302530514,13.158693558561936
809,7.860305172551307,-50.49450343311764,360.00324785030534,10.854518690575787
810,-3.8582889630415593,-99.88621881324798,238.8019081663806,9.239292895817924
811,-6.007536265722592,18.650949977803972,388.87463375514926,6.679779725185654
812,-6.169457240001066,67.76760980649851,557.1169710393733,-1.532834435300174
813,-5.467167733593669,-34.757422984344885,445.6339751808409,-12.50842613200075
814,-2.73864224555291,-37.73163698031567,378.16174779250287,-7.021235792519292
815,-8.315907230295124,28.231570806587115,490.5280351751717,2.8944359822671686
816,-10.14058250218659,-0.6305569594260305,510.5580458785989,0.3985347205816651
817,-4.706046902858361,-35.06425838335417,415.6098255878314,0.2310085345925472
818,-10.95044554809283,-8.398653820157051,414.41188315628096,0.237779658902582
819,-16.121644850420125,35.78022118285298,519.3740834461933,-10.674600738322624
820,-10.06911872625642,33.265953375259414,550.4477042765939,-19.818375038463277
821,-6.118811439606361,-30.25876472168602,418.0368357406114,-12.722784312420115
822,3.2349549250720884,-24.975939612369984,346.47979287680937,-0.6637212616551551
823,6.319519107986707,78.85959741938859,540.7589943066123,-0.7326064208136813
824,-11.132008547705482,82.1333405955229,627.1206167865894,-6.100914234262746
825,-14.754152288209298,-1.0363169230986389,421.0328017275315,-5.512883140869235
826,-4.581735899679188,43.89362217951566,417.0904547451064,-3.8048220979544567
827,-6.59615525155823,83.75450645433739,517.4780715960078,-5.266587890848314
828,-2.360690872403211,14.923332585953176,390.8811354732025,-1.0554915139218792
829,5.403473675360146,-3.881724705919624,311.5528765029157,1.9821196493321624
830,-1.807450170723314,24.9899636360351,337.8940440242877,-7.225776519182546
831,-8.325227538305626,48.11728169280104,348.6041895066155,-11.276833430529225
832,-8.580125476168178,11.708985896781089,280.9363322510617,-11.639946668998164
833,-6.764239529926272,-40.38191500096582,159.73308721359354,-14.945759945796452
834,-5.559129322013177,42.59315605228767,229.23045833420477,-6.5953006129893765
835,-9.943087613733953,112.2399621203076,381.40319754520897,-2.629184325087408
836,-4.864700043108314,13.079870738787577,267.59454193443526,-4.225006778302486
837,6.817118501945515,-49.78955407394096,70.47670615580864,10.577826065389672
838,6.464365496678511,30.195027579087764,151.61714709724765,18.519448568404187
839,6.416433362348471,62.85108961863443,248.65878673805852,8.65496086730127
840,10.82273207649996,5.81826701737009,121.13777540868614,4.050409707149811
841,12.314653490670024,8.610468784114346,80.64276223117486,2.119590278769465
842,10.906092743418412,41.6023490994703,167.56423400668427,-0.9745399821294995
843,4.241035799423116,16.625585777685046,174.75729521585163,4.862883080146276
844,1.7568261578853708,-10.934211478801444,124.571223734878,11.228201116242415
845,1.2791987453674665,-4.139570615487173,101.15791337878908,9.561393369938742
846,-1.879460808617296,13.882130319718271,169.48761664121412,9.878919079928892
847,5.340733756311238,13.90115404780954,250.7740969558945,13.654663507291843
848,15.127524669471311,-11.98590626846999,202.76727596926503,14.057477488961013
849,12.3870879655733,-20.616452308837324,156.93463878252078,13.499049572485092
850,5.543488795883604,34.79401894658804,326.8939924443839,7.628033877565031
851,7.445632117771311,43.29259385867044,418.27203359419946,-1.9705772856541444
852,9.790823696079316,-36.90995466313325,232.92581268947103,-0.9435480107968032
853,6.498149118808215,-15.494116601534188,237.02885763626543,5.350824196942995
854,5.566306576671195,17.626982795074582,329.71334617212415,6.24675841455246
855,3.766731270938181,-49.19470128393732,200.04619848844595,7.683854340553808
856,7.079269441179349,-66.15425125788897,152.14860949805006,13.92148347642069
857,15.48912788979942,-60.228588425088674,173.37314251367934,13.588812156907808
858,14.769764557669989,-56.00479686912149,167.58669359399937,6.629281025707314
859,12.624581978976494,-64.82584018539637,153.43913041590713,4.869995539833326
860,8.855651965437573,-138.53534475620836,21.49241779278964,5.96669575616761
861,2.2990306121791946,-109.36104875989258,28.84517350024544,12.72770312037028
862,10.56552607024787,-28.283699105028063,219.9234658579808,18.10146066375819
863,20.640330803318648,-139.7732772603631,116.888170724269,13.571329018042888
864,13.797016112599522,-229.6286302325316,-99.16965377703308,9.132479017251171
865,3.756705089661409,-145.9813815660309,46.1192824721802,-3.1225607720371045
866,-0.4632268817658769,-161.61940151895396,163.54735302412882,-11.561377566806186
867,3.544132062001154,-250.5341636594385,26.39378168503754,-0.5007698088702455
868,11.449403635895578,-232.7513091606088,20.16050322004594,1.6335656328701589
869,14.501524439358036,-238.4581420356408,80.11826941440813,-5.975553661881349
870,13.649738521402467,-294.7245594309643,42.85846929135732,-4.171686845214936
871,8.340202595529263,-284.9506936969701,58.12621336313896,0.9719387199111224
872,2.797030425121193,-261.8789380306844,115.75900339242072,4.899415683164989
873,0.2398946077737491,-269.4075160275679,209.6685469232034,4.647505284367071
874,2.842730853779358,-317.8249971871264,259.40824473882094,2.690202430343561
875,5.190965777961537,-379.0156359395478,165.25191039661877,2.399199013823818
876,3.377513749015634,-338.3255031025037,216.96236250619404,0.0495965594418521
877,5.310428046519519,-287.07746184407733,424.1847978676669,-3.931076757360642
878,6.383754345879424,-342.8764413087629,435.7353773710784,-8.046042126637985
879,12.53728349065932,-386.6155984411016,341.5094918454997,-4.551852084114216
880,13.230346974989516,-358.29309637867846,415.1778049424756,1.8653293471088543
881,1.0298847348749405,-341.92668876680546,515.8940505255014,-1.7792985293908714
882,7.047905203740811,-370.7280141715892,464.2702389806509,-0.6278617975076486
883,17.328845694180927,-401.80279411911033,405.599079265492,8.65596579330122
884,14.581414263608169,-355.8707617346663,469.988298147684,3.519387517215364
885,14.749788238390463,-278.7579833450727,634.8893643505871,-7.376436024307623
886,15.44352814409649,-333.28568032733165,629.0660650206264,-5.952110240237744
887,12.570346922424504,-378.52531561860815,458.6453152419999,-6.003489041768262
888,10.0312878460536,-315.9464960314799,505.2998721122276,-9.020417184903636
889,17.09836790697591,-341.275076192338,533.034137516981,-6.139417739266719
890,25.89803839683009,-375.2816351132933,373.06121571478434,-6.018363531462455
891,18.789665639502346,-304.640211165417,359.1626462507993,-5.537124469035916
892,6.695449444494443,-237.5979252001271,475.6977425010409,-4.302305112421891
893,4.906687209717347,-253.91876372206025,459.8572740647942,-3.455999849767977
894,13.230967299154145,-276.3043410626706,293.08964256825857,3.897705921319357
895,21.446934603125555,-192.3542431050446,276.2414716151543,5.4633436562635325
896,22.829468311814708,-104.9263152484782,446.7782093454152,5.494917159491706
897,24.36810231175332,-110.08884267276152,449.2447650916874,10.389857004243822
898,24.0578811190353,-143.83366822288372,262.5235818380024,6.448338211793271
899,19.86875252895697,-107.7959914917592,233.48234889563173,5.496634534907571
900,23.494585899243248,-48.26428012968972,317.5569397183135,9.818204600253011
901,28.062736908876104,-70.52878864761442,228.6855827800464,5.526339620537328
902,23.891427152513643,-80.02818748424761,120.201032895362,4.099761973942805
903,20.248657774645835,-20.732587513746694,152.74110563774593,10.010007584364756
904,20.11609935796878,4.074833036633208,140.1566450695973,10.756618204538428
905,17.79191647087282,-31.03117465856485,12.902128058020024,5.889172496363244
906,10.739953617143328,-47.29686878062785,-82.05351317394525,8.413037598921619
907,9.821332677893224,26.644240759313107,-35.2642414025031,16.993839876342463
908,19.436423165607263,116.75642883311956,127.0968492582906,10.87544893935683
909,24.36762680146785,55.707763492362574,98.48317709425464,-3.5475964317715807
910,20.81416561009246,-3.718123274622485,-77.3479707960505,-6.375870922515787
911,15.188594843479224,73.98880539089441,11.441983099794015,-3.0058075530064343
912,10.420380583775112,66.52612217282876,81.41106216679327,2.366260248956678
913,8.826378615267458,17.32526970235631,-20.22830611723475,7.034880278272794
914,10.680679140103166,48.83306680852547,11.243266808334738,8.8518690265048
915,13.403608087959585,62.32418723125011,100.9452990856953,7.446234423698115
916,10.362584916074413,31.35586904361844,128.1001809751615,-5.362955876653359
917,3.406466202417505,-24.721709299832582,47.66172842588276,-18.36600524733967
918,3.5671219406212917,-30.804855965310708,0.9063239991664886,-19.35344638168573
919,6.40203873894643,10.557887396076694,147.88211474847049,-15.995673674480372
920,9.264031589453223,-11.56482245447114,244.25905121304092,-8.652400217237584
921,19.17169763764832,-85.3200627756305,123.93010225635952,5.838399892024654
922,20.64301999271265,-102.6336463082116,24.24298641923815,14.77330616073482
923,11.660586160360252,-49.30703078350052,179.34819040982984,5.662926906243683
924,9.522949434904149,-85.93920516152866,255.0483144519385,-7.614038698187869
925,5.484815190691734,-185.91273716045544,74.83281775051728,-5.021746075549345
926,2.6279359589971136,-173.05586563562974,87.37682858435437,5.886542574085979
927,10.273230585706187,-156.64928949135356,168.1991477261763,6.555670719715636
928,10.664476451216617,-206.67412857804447,56.95379999303259,2.730184585338975
929,0.8378087471646722,-227.5681337781716,8.882490141084418,2.9755501681902388
930,-10.670198578845884,-201.6467555549461,55.881653444841504,-2.21218346538717
931,-12.77370115451049,-147.36939883441664,148.55313537921757,-5.914532071468784
932,-2.2798089599600644,-175.67078788788058,131.1954140609596,0.1919086256693845
933,-4.42874471891264,-258.5776651245542,-61.077131854137406,3.998502537731838
934,-10.6694634956948,-171.5807645986788,30.767742965603247,3.002641305252837
935,-0.8305078626435716,-85.86219007032923,293.6546258847229,-1.1109770912507884
936,-0.0416324861507746,-213.2141283310484,169.4947696130257,-2.830376075370623
937,-8.864662014988426,-239.87227378948592,34.799912638030946,-3.2482558410929414
938,-7.020521430946246,-168.6717501981184,175.49007490556687,-12.402728374040636
939,-6.807201517432986,-234.27446409710683,161.09617073857223,-11.292343572590651
940,-15.121175337655586,-257.5952576112468,71.12046588677913,-4.719088362906405
941,-15.183760425876244,-234.60345235210843,80.71728273225017,-6.979342660896691
942,-4.847126949120138,-223.994252193952,117.82990046124904,0.952376558557262
943,-5.138536476872105,-176.16229945071973,210.64023813349195,1.3516989366798953
944,-6.785435920421151,-205.9325140276924,137.6317575746216,-5.163691919389748
945,2.3308844691637205,-202.5196950880345,22.363501637475565,3.5629304691410653
946,-4.927548132945958,-89.3060326394625,208.66052570403556,0.9713618345085706
947,-13.629775698878802,-112.9711085385643,261.0630193853285,-6.394060746068135
948,-10.18594365399622,-186.17112856497988,50.73696008045226,-1.5698746186117205
949,-14.861728875228437,-100.16017370996995,119.00393442017958,-1.2323851393193763
950,-13.485842795118517,-77.13445503567345,246.2204571356997,1.647461655034931
951,-8.542405594904267,-166.97447457839735,123.08257402549498,5.686643028666367
952,-4.131508388658403,-175.45592407905497,57.13733900291845,2.505989411682094
953,8.746088935447915,-150.5244790164288,79.74621724104509,-2.433001897234135
954,16.31404848704551,-134.6766350865364,101.4889542912133,-11.660495904146956
955,20.5427838405667,-142.72828495060094,96.83623162703589,-13.177761358980206
956,21.854825918104325,-186.5535612022504,26.6526669471059,-6.945275523145028
957,12.076021509543352,-120.25463917152956,96.82599300495347,-9.45399869121684
958,10.896631434501614,-66.59265033178963,221.99456973630004,-7.850051752608124
959,19.406069480231963,-182.38204440358092,94.34971428895368,4.331778130890598
960,12.42444605712808,-196.93215996585784,-6.164805046049878,7.750163175374837
961,3.8850837982681696,-135.4302755522076,81.20085264951922,4.285589658931713
962,2.49424828512565,-204.82317509851416,43.21513959346339,8.178395136104882
963,-3.73840441552602,-231.1675172399264,-31.47485213726759,6.874139274155823
964,-6.380659169786668,-184.4928784549702,22.25295141618699,-3.0101588602956326
965,-6.552474850061117,-191.08575155283324,71.00378681230359,-3.288888382376172
966,-6.79335245386028,-225.32939623994756,61.50387932383455,-0.0688115163484326
967,-9.554031989297073,-235.43706087418832,30.749389224220067,-8.03386459606918
968,-13.006513507527416,-224.9417536398396,27.53251115768217,-15.834035556430536
969,-8.154014375984843,-201.8647703982424,119.58196169068106,-14.650131282251095
970,-6.892770403086615,-199.05112134106457,183.47140539670363,-16.9732447624192
971,-9.74264447481255,-238.99299873807468,89.77186719072051,-21.41836986430644
972,-7.261438396235462,-209.30956521397457,99.17854256322607,-21.80145127333526
973,-5.240890839108033,-156.5790904185269,172.1800429248251,-20.7864495766662
974,-5.614006616757251,-174.1651439741254,89.32940371171571,-18.95155627799977
975,-6.33639972628589,-153.57433869875968,85.87350545730442,-20.249966203675285
976,-6.369495471590199,-104.23588200425728,148.53671352029778,-14.9946477431331
977,1.3114906420814805,-86.57583368732594,109.23959969868883,-4.120421303174226
978,14.767427278457037,-86.27548958477564,61.22164179361425,-0.1115786730551917
979,16.363394982588943,-70.07479884452187,102.25465879729018,1.3646586577415292
980,5.923179906727455,-9.786827734904364,207.53997831023295,-4.273195628167741
981,0.9652792714114184,27.7949282922782,215.08659742190503,-11.095302588382763
982,2.858976860290568,-20.05306748277508,93.79957525478676,-4.728383173391194
983,5.751622317475267,-50.707302420632914,19.37324835010804,6.08481408906664
984,0.79680715696355,40.57694797530786,115.25179735842704,2.7248835804487634
985,2.7053188042834613,71.91956708560977,294.29702788514624,6.722380289399362
986,5.175669771965809,-7.914574682330567,200.19883183400685,4.103715934978132
987,3.547368928850302,-20.13002764530509,79.94460762101028,-2.324831788758688
988,-7.010686399650254,39.3974675894525,173.9144681853959,-8.113057059910105
989,-15.128703994809072,-20.942410897039903,109.2946725424681,-14.409968598922012
990,-15.36290284837404,-46.817321878822895,-18.479005295234856,-13.162978191639588
991,-15.710589368371018,-8.008964370408876,-16.556781835345646,-2.0487501193735937
992,-15.872188987360598,50.76106169001321,112.64644895825404,-0.1477165384354322
993,-17.08990615400438,80.73870736138258,212.775639109268,-11.34085429364908
994,-18.189692548503302,-13.492883108688716,37.269559455297895,-15.012871696392333
995,-22.640760248926256,-4.5068247941093205,8.856649647195809,-14.804089934944471
996,-19.59710975405829,40.89951400208997,118.53695485216303,-11.030380794045412
997,-2.1971933235850543,-31.71518459650906,-5.245634155871812,1.636871714893914
998,-6.088279260414311,-33.59351666041675,-51.9222922246172,-1.7754430152157283
999,-17.623547853005334,4.421635010518685,28.309259846479108,-14.511312187674092
1000,-10.95631757802994,6.753544079067751,38.59597540532195,-11.600404546972982
1001,-5.791342580842297,-32.345775188062134,-38.56260682939683,-3.0586814448095083
1002,0.3852469791738713,-53.57859085861082,-104.83902224937628,2.131324717865141
1003,4.912647794652457,61.02763594205908,32.628954160532885,4.480131281393369
1004,5.49845811251339,102.18942327365266,157.56769239493224,-1.8185940412441823
1005,7.936885218087355,-40.41736624116356,-10.247642415793962,-4.115205480767372
1006,9.521855093607655,-86.14821221633429,-145.8346750393575,10.69610690243735
1007,15.811355544344906,3.005537070819628,5.77742000967919,19.94785569204123
1008,20.389585059487217,22.5134454075951,114.05797651646571,18.52767243462813
1009,20.446172301478786,-29.47672789735452,18.49915836749642,15.255344124546127
1010,19.178685108433456,-26.88502437823763,-3.2771660586367943,7.209938434030391
1011,16.416505247794248,17.1789550569506,108.33083817894658,9.009833556895728
1012,15.318178914485088,-17.337653887204397,116.74303247231364,10.738457901237323
1013,21.160750425170136,-72.39727908809891,16.523095433083654,5.7222516445622205
1014,28.99231562773593,-30.16733733060209,26.470121155376543,14.15076310867903
1015,24.20698038426008,39.5857785602102,186.59325230758984,20.435997284180075
1016,21.82468476833992,6.641945932643466,238.8425468540081,16.374126448515653
1017,16.453645319110365,-63.68613662125608,108.46526713449566,10.291190653932064
1018,0.6490523243601274,-14.271896233317875,131.41089005152023,0.766226519511747
1019,4.834838297138049,16.096040637852184,257.0287744480811,0.4463172550185845
1020,13.205392791685426,-74.40583103839799,188.33726836521964,8.807370477372842
1021,13.17028290297094,-98.9697554203526,132.4235655830489,12.19751274956593
1022,13.210172757532746,-55.87795852986255,229.8542962045176,13.540615114758792
1023,5.773396141525154,-70.59305609762032,265.0132970761915,14.660787493229464
1024,3.485505676006824,-129.04400253645372,180.48196157437636,8.073682207354295
1025,12.311571828134674,-174.93617559945096,94.25336093433724,8.88869083896634
1026,25.57589196059871,-151.37996135398976,104.51580741374346,25.698885089389364
1027,30.953463523190067,-89.32947995148106,205.03411324509943,32.90791863703214
1028,27.54553534031311,-127.67251164612094,182.4679937937035,34.97515610893163
1029,29.22266710992721,-202.0282390686284,19.1648209480918,45.74140426512491
1030,30.26392778539207,-109.15506919101608,82.09220021350484,45.85703143082094
1031,26.949546956820768,-34.467221012774644,228.42917910942924,32.65315261264726
1032,22.681139012452377,-121.62937011138185,96.15051358239724,25.8235336961377
1033,23.77546207137988,-109.5619564325907,16.780824602377834,30.14023465478067
1034,25.23273260784424,-60.13289203241948,86.97173486209067,32.10702727144371
1035,18.7379013814122,-87.66463829605163,79.91591257257096,24.923600877096987
1036,24.89590245268164,-75.56829739191016,60.49507883764454,17.54627745980133
1037,30.916185608802607,-75.45239762892015,20.13144283447764,14.286137765672263
1038,17.600224208882537,-34.6610770505722,82.31612807451165,13.364605488133748
1039,15.0903950444349,0.9451875843824382,198.26434430485824,19.989193340930345
1040,19.193885727236648,-76.98219593677277,76.51250999761396,25.863674907086533
1041,9.881874158042592,-66.06026220166677,-8.089602885156637,17.833768750822856
1042,5.90815226190125,34.28752120687204,169.5647630149324,11.942502523755138
1043,14.138358121106648,15.558415807310666,232.43745639923145,16.617485172349006
1044,16.64860902684086,-39.25176433062734,115.66788085742157,13.544921108766175
1045,9.47682744253416,20.43314128376369,176.04797453791252,8.542691284536886
1046,9.037704658977418,51.69508673091332,258.4763826863782,12.73596128236295
1047,13.45069546891864,0.212713381035428,173.23815611519967,9.356343793700944
1048,10.360074449217793,5.608513642378966,153.52913919108687,3.7853136715384608
1049,2.164896028199109,46.06369618291501,200.65891196293524,1.8366300693196536
1050,-2.898259957167284,67.77968515134853,249.62025164987423,-6.101485468274404
1051,2.6576174888014066,49.7037413588987,255.087562577246,-1.8748523585782093
1052,7.857995268095692,-1.0568366891893677,151.07455002731876,12.039657401930526
1053,7.605445506997057,60.74605256799259,183.69715075872955,14.102928291831631
1054,10.901247670022713,157.50743776006857,381.7420656363538,10.837137469581648
1055,10.724999074534937,63.7267764829885,320.77058415918145,9.974907560794236
1056,6.196930576365048,15.22829181481211,164.0220276058535,6.742445559133557
1057,7.208257193495228,102.55652200984332,282.9923978764855,3.726144055532132
1058,11.54480429645264,62.53356266378978,307.57341048211674,7.918761105833255
1059,12.342022334263676,25.80415092252952,198.1821425697999,5.83659188821548
1060,11.204651840589577,64.04493147203175,228.08071044669487,-3.321814902825281
1061,13.446621545335802,40.86528177142464,227.20695516117848,3.914298676925682
1062,24.2945214466763,23.540285785617016,192.3867345579201,18.70506438468874
1063,28.24617934138041,24.920537598278315,176.08620206272462,15.517381989709977
1064,3.09738954126442,15.061282708033104,135.4722389994422,-0.7385440683647175
1065,-19.472460961282195,63.21959709835937,247.3199281146517,-12.207063184705476
1066,-9.81369073148744,64.89011691694031,311.2098163224291,-18.538499659262012
1067,-1.3239652045922412,-25.757183556299424,107.61672854510834,-20.268244699222123
1068,-6.0447071446578775,10.89188839837152,92.43127148557689,-12.43867546958063
1069,-1.6564342340388976,57.20627280732879,193.19632235675817,-8.437955850553408
1070,-0.2871639372460777,-27.755890696673305,44.60653566551628,-14.158497352702398
1071,-3.6835666294573457,-48.34569909638958,-74.46107689419296,-11.64215580284872
1072,4.31189720358816,-0.1631039479834726,-58.03095177287469,-3.8564117147543584
1073,8.930497887104138,1.7380877618707018,-41.46732196316589,-3.3683930289880664
1074,4.109488607962703,-65.60001721410663,-132.56007610447705,0.8445275580997986
1075,0.3762453281087801,-95.75702143582748,-241.4406081687193,8.426853904726158
1076,2.678940867055644,-32.32938630438002,-167.60969691287028,6.629793545427674
1077,2.032030275044235,-37.86748081029509,-144.95244414138142,-2.886386483540264
1078,-4.750896906098205,-142.10395905788755,-322.5699747086619,-6.882183944464487
1079,-6.237901944274199,-169.28526436294487,-413.2798302806332,-0.8126646921336942
1080,-10.245731771166902,-102.80061322214895,-308.95911538781365,-0.0970283111128083
1081,-10.775602758225432,-107.84496092720656,-297.3852176145883,-3.823808590022964
1082,-4.241379911327385,-163.5994676736591,-442.8368333107792,-4.362810195234488
1083,-2.2678588334056258,-135.725762444883,-453.80631365877343,-9.091443259781954
1084,3.856738151858736,-116.87456036258664,-397.20304391992977,-7.965912371571903
1085,1.87775882720598,-186.45000586593235,-488.1991351508768,1.2063534944027197
1086,-7.181473721546354,-219.5935133305611,-591.1034837126499,4.145644687036111
1087,-6.344611728010932,-177.6832170192938,-563.6252470532199,8.99975241471111
1088,-5.759796466576518,-125.6790666491579,-422.0995884629665,11.949751556945555
1089,5.200527641289227,-145.67529634590028,-397.7406072973972,7.769520333968103
1090,27.96223380578158,-209.15024825643923,-548.3386429839302,21.22224383950379
1091,38.99289561697515,-172.53793999658956,-528.7957747629844,35.29349024644034
1092,31.14292665329413,-140.7664030859887,-443.1427857408999,25.05907368082262
1093,15.764016112472746,-180.72984735229693,-475.71852650737856,15.829652786975204
1094,16.892126903039753,-185.07920836290575,-471.4256460330216,12.06795147003868
1095,26.34369592057192,-157.28481988461863,-440.2606540156994,6.322771192455548
1096,22.578552374026916,-126.55531645736482,-364.257056130562,7.453321435103135
1097,18.05026747004013,-187.1854396721465,-396.3333260923391,8.775419961981243
1098,18.78179797959456,-236.45107821367856,-499.0332069803262,7.193378881667741
1099,16.03930666593078,-128.40285617785412,-329.89339166204445,9.345901755317756
1100,9.809298780302925,-106.26056212664116,-181.8241811157204,5.354435573979572
1101,7.59671599943249,-211.1837920000544,-292.9862997625023,-0.6965261983859818
1102,7.867604726940044,-207.72207800584147,-322.7365725382697,6.308407534939761
1103,0.328352416974667,-153.73320325513487,-205.2287745429203,6.992879127974447
1104,-0.8489695587850292,-167.39595693486626,-172.42859962943476,-0.1738890230262768
1105,5.168025965424022,-189.232292050292,-222.764960262808,4.744127389189089
1106,2.233350541624532,-171.5660251051304,-205.4305965679232,9.686923824236146
1107,4.767400870325218,-107.9877069965878,-92.13771774386989,6.773206068974105
1108,2.0031413973483723,-84.75087797312881,-4.8509040757780895,-2.2439552672294667
1109,-11.94073665115866,-156.42731189832557,-86.33099088596646,-18.12734034902678
1110,-14.35970134688978,-166.61933006881736,-160.09774026076775,-28.683385974734847
1111,-18.287154169207497,-49.34903328469954,43.63857052114327,-30.451838968423544
1112,-15.877725142716372,-20.79190768895205,182.95887829957064,-30.36193158780952
1113,-1.9878244442224968,-101.46081165480427,35.50919002632145,-23.75508613603597
1114,-4.34139451203373,-64.50082634622231,48.13181444304064,-12.646530045945838
1115,-5.996290730632609,-37.19775209325599,143.52547152689658,-6.677060094247281
1116,1.7241106861256412,-100.1555145701277,78.95315987279173,-1.0966260935674654
1117,1.5309711965746828,-82.88404999056365,87.91519476985559,-1.0960215394879924
1118,8.509017433374538,-55.38914082833799,134.76332332915626,-10.019064300322498
1119,19.729950913570065,-44.14550975617021,163.86540770577267,-10.623081982143049
1120,11.293531245508348,-60.25565131934127,145.94736316415947,-8.195551443830482
1121,-0.022531270100444,-118.33135766873602,58.43169144669082,-8.421640063774248
1122,4.2597226714133285,-70.53096778789768,115.10001231811476,2.320355188836402
1123,10.21113383278862,16.046592372236773,244.47380222182252,11.77544623940048
1124,8.135424628155306,-20.9146189626772,219.4576394829201,10.005507604262675
1125,6.829550521841156,-97.1291355941794,82.79644213849679,11.771391223126557
1126,16.269723105462617,-12.233377111610023,141.34131844015792,15.248852950164292
1127,21.38942701247288,76.58548616094049,335.81696747161914,8.672602634585928
1128,13.79308339743875,-46.43551102175843,221.92466863652223,-3.746687069746258
1129,13.4957617095788,-72.59502342739142,102.88732423237524,-8.25985746657534
1130,15.03681017816416,11.298147719760893,234.8439075787319,-3.107824619357416
1131,3.975798307277728,-42.57869725051569,219.47066286648624,-0.9873405348771483
1132,-6.1287544783263,-70.36226058623288,144.2405271433527,-5.396582241446595
1133,-5.2124716621183325,-53.3561539320508,154.65168754698243,-7.768182293511927
1134,-3.8668260741396807,-54.84256644110428,157.46773251635022,-7.212155498171342
1135,-7.222035667466116,-37.96780953556299,196.6104871387361,-6.076262474962277
1136,-3.860625039276784,-69.14756996976212,149.94086052989587,0.9780427540827076
1137,-1.1673407010093797,-83.6092467235867,75.6579675632529,7.038823078197311
1138,-5.345369247486815,6.049931815359741,225.91870022856165,2.1976032796519576
1139,-6.876017898073769,30.029430422873705,310.17754973634146,-1.1088806929037671
1140,-9.303562421555398,-65.54931217653211,113.76357819710393,0.6006091832387028
1141,-2.0840337145345984,-31.02994788560318,102.86652710626367,-2.7277604656264884
1142,8.63108017250488,44.20201655983692,212.50168246182147,-2.927228282467695
1143,3.4580906592309475,-2.452054871013388,101.53696620452683,-4.526325182101573
1144,1.2279400395200355,-1.465547094529029,42.62140869244468,-12.845540545444235
1145,3.371384568599751,29.98871298012091,69.98222379153594,-6.65943895719829
1146,2.520993113183067,64.58115142799215,89.2517504208954,-1.0232373968901811
1147,1.3184639762475854,98.14770103397314,93.6865234702127,-7.3500241982983425
1148,-4.30111349344952,63.350306768959854,-7.701407142682001,-2.010997221164871
1149,-0.3152755549963331,131.56879407935776,19.26031751895789,2.6921790816122666
1150,8.676507368305465,234.91033365222395,152.88236099446658,2.57661925132561
1151,7.51227922704129,157.49818438716466,43.4312127053272,9.960635756942793
1152,3.0593412497546524,119.28331214777428,-91.04895567789208,14.146335594312404
1153,-3.1164983158378163,220.2554760040948,10.90479082451202,11.170744827963064
1154,-11.6622228075139,241.00840374216205,56.89199130225461,1.3321259090298554
1155,-15.256791936961235,197.129246315104,-54.52955444448162,-2.6144977943622507
1156,-15.444389193842651,230.0733346795896,-75.06054979469627,-1.7547603299026375
1157,-23.4205639683496,257.9665177578572,-43.00859815126751,-7.903769041236956
1158,-28.322471683612093,238.2857319809264,-68.53124666947406,-2.420161376503529
1159,-24.877106035040924,246.42867774516344,-85.19763120892458,0.9798190198489464
1160,-23.03522294803406,242.7537722522393,-124.6071307741804,-5.0775747273874
1161,-16.290561649293522,279.7172414246015,-65.03530279966071,-2.974689400420175
1162,-10.590456346079009,303.2892476823181,14.498405096237548,-7.803386833227705
1163,-10.399507343710866,216.0755148330936,-138.63829864712898,-7.455623807021766
1164,-12.02413696567237,233.19154659239572,-169.67253615043592,-6.522249370624195
1165,-15.689318983393605,308.1987798047485,-28.291688279714435,-23.87871191459999
1166,-12.153373299894156,265.0433765873313,-78.07117803883739,-27.188640146545367
1167,-7.634211574841174,223.9943302489119,-176.69443612464238,-21.69971239074948
1168,-7.810733518825145,255.98200109810568,-137.55520273884758,-19.51307523921423
1169,0.985750733045279,281.2462156198453,-93.08155369886664,-6.4680978921824135
1170,11.58097577423905,239.41848767804916,-169.74935894226655,-2.593758452698239
1171,-5.328585343580926,205.08003410394304,-245.3845496008871,-13.990928333892953
1172,-28.69761131593259,260.59619926288724,-191.4535744364839,-16.356679219199577
1173,-17.665726721621468,330.67001412215177,-60.13629569031764,-8.507114025196643
1174,-8.356156136622303,272.38606518821325,-83.07402948406525,-12.074073710828088
1175,-16.880812348783365,213.90908342821055,-239.1823968886165,-19.84201011522964
1176,-12.896603057626637,274.4311557726469,-192.1200226809597,-16.042337100530858
1177,-11.986234393320046,245.1118020712165,-166.1454776796745,-14.510231034393655
1178,-19.706947574653896,188.4964123761747,-304.2569666308118,-20.476609649907918
1179,-23.54661578386731,245.75768606341444,-285.81328454229515,-24.57908982974186
1180,-23.732318252077675,269.9315161210252,-205.3393826370593,-22.07014127414732
1181,-22.271693649570807,218.88578648446128,-244.2552605199162,-22.202453095655077
1182,-26.62988646711165,171.30198780272622,-347.1579034915194,-23.46243027759192
1183,-24.47755618323572,180.12023541657254,-386.260825381265,-11.016723864333471
1184,-19.387939253632798,242.0374535188312,-257.30322440783493,-6.262538997223601
1185,-28.442661786655663,245.15039316215552,-192.11136552190877,-17.032299724247423
1186,-27.735594224912347,166.54605802940205,-333.0570173643064,-14.349946264454047
1187,-16.95625374330848,180.06634495512117,-346.13732862775214,-10.41383551598119
1188,-18.589084112318236,219.21071632241365,-272.6779251890257,-20.222400556740467
1189,-16.37112275772961,157.82545237871818,-358.9657512498088,-28.571218661338207
1190,-11.180357042016112,144.5421443847008,-403.5225893481402,-38.929598000322585
1191,-19.92403462297807,180.2890603452688,-344.4929531886009,-42.12670617586991
1192,-23.17936820341856,177.18142678041477,-323.10735637135804,-35.6526088394603
1193,-16.05747118583531,131.50184904842172,-396.773151874193,-32.378857612857246
1194,-18.361661580813237,81.01030529849231,-493.615442037466,-17.386420434399042
1195,-21.24346580287965,143.96266447904054,-432.9430223273812,-5.853639691165881
1196,-20.09852881955157,240.76070679805707,-246.25200658803809,-8.625096365067293
1197,-28.66136504463793,170.36771494045388,-263.8949781686533,-3.096053694112925
1198,-30.839780079666525,99.83244870242196,-430.0843849219382,-1.5907493711420102
1199,-23.21624185325345,170.65204156714026,-356.14896454452537,-7.784021272454993
1200,-28.1225678625342,162.4625603412278,-293.66292923199944,-6.274956993365777
1201,-32.15606689141714,107.31851552636364,-396.0577974524349,0.1303631985065294
1202,-26.206950201376458,141.32360164937563,-367.8631540170172,3.3987143637932604
1203,-19.864553800027352,164.4209576897556,-291.890632762108,-1.7851572733052308
1204,-13.02557316403545,136.29341255815234,-289.2484286648687,-3.854352566442685
1205,-17.30944208339497,98.03749379422516,-340.4921255799709,-3.376656771681155
1206,-28.57775809404848,109.19521426584106,-355.66535924805794,-10.52325060853036
1207,-36.019016683188966,144.01773795951158,-266.181932427804,-10.766335093197997
1208,-36.56870291644009,133.28607573499903,-214.15328808315095,-4.806658178014914
1209,-19.569106887458474,87.90137805370614,-280.8795337799238,-1.433084662174224
1210,-4.317765418600175,69.89607089397032,-342.8875807847362,5.67393475069548
1211,-8.09681683521194,152.60189991642255,-187.34816375246737,5.3804169585200725
1212,-17.16974478994962,161.93001181236468,-68.53969882568344,-4.158054186031222
1213,-19.90757828587084,53.70757220312953,-225.5704779085936,-2.051090599692543
1214,-14.897582696852623,90.2052302287193,-201.6939945165068,-0.809887098177569
1215,-15.652738520264393,142.64656381047098,-59.73519167664927,-9.897154355538078
1216,-21.712200067559024,78.25546224508435,-129.09316615818534,-6.8696468559792265
1217,-21.65590275649447,47.28893437999068,-171.419524803292,-4.098189609590918
1218,-23.552573083652533,62.61231655487791,-117.04499195271636,-13.34882236357953
1219,-22.853635385472444,113.31051955808653,-7.416712122852914,-15.81058047634724
1220,-18.51489866869815,89.09734244906576,17.424041808233596,-15.595305592825753
1221,-23.96872585285746,-8.382727280259132,-116.42127211292971,-15.692297649176908
1222,-26.683372177634737,39.938008322089445,-61.247052757884376,-12.68566588104295
1223,-22.924551359246838,114.43227044772355,118.99443276331294,-18.6762774517847
1224,-26.389206101899617,39.97010391036747,65.049899850972,-26.994004296982894
1225,-33.451019669286325,-3.86952825501794,-37.08931564114755,-27.37208309811831
1226,-34.997052190752584,59.920990115148015,65.06455460790312,-30.468940690843738
1227,-30.01469161042769,65.7338099211338,143.31121782766422,-36.08983202734089
1228,-26.461253489833325,8.857261700963136,63.538242359878495,-32.33602822855755
1229,-30.331581641556117,18.951495122164488,57.65827162691858,-24.39191932765243
1230,-34.24478356904001,54.48801743873628,137.8411681485013,-21.98671780747827
1231,-26.237202412245097,48.65734230389353,169.66044249769766,-21.598331829562085
1232,-18.7151167493721,11.605027068173513,115.14234539150492,-19.03975287773937
1233,-23.48095615717466,-2.6299638185300864,44.38488900079392,-14.069321763905464
1234,-22.26191147953796,74.52956027752953,188.0952549231588,-16.24845701942104
1235,-20.79083957048715,65.93561554991174,276.0407995012938,-22.5072811464197
1236,-30.281439482278078,-33.21369041275466,105.36054352996872,-18.31206430903694
1237,-26.31766717863502,16.671167494147085,134.75290899933316,-15.727803207293618
1238,-16.50618240442418,50.34819043945754,240.189610584639,-15.025804125820288
1239,-25.81164350170002,-30.349442999402527,147.51534096943217,-11.69881394492404
1240,-27.361566450927057,-64.48081301298225,95.62571545958052,-11.775504157529213
1241,-16.105523767444538,-67.89592545019696,117.68256801791722,-9.092924130542087
1242,-17.131484148776508,-50.60380139853805,176.23732378345449,-12.045260689905264
1243,-11.402157315678778,-65.00785832182737,199.72411689476576,-9.940162248531124
1244,2.876165330177173,-143.73459120211191,118.7888071659836,6.082579962007003
1245,-2.0945977733354084,-110.12811375345336,169.2065348746255,5.000313427648507
1246,-17.19476218575437,-59.28055947762914,312.6183565541869,-12.85472187929554
1247,-19.814489806856727,-183.94849407090803,209.9316082834266,-20.469409839904984
1248,-15.333258853541338,-235.5596752942656,89.27517608337803,-14.232754554817802
1249,-15.284099734577469,-179.0392203926458,208.23857753060287,-5.090106911360635
1250,-12.529975983663462,-235.47368234331952,241.67663864046332,-0.6893333851912757
1251,-5.629618886130629,-292.0571986817522,144.1959138364764,0.682628944850876
1252,-6.228639957626001,-279.5549037095625,155.67152071744204,5.060298472759314
1253,-9.281271176369046,-268.8819543449208,241.89721802226268,4.871596878569108
1254,0.8317597018758534,-280.33884310530266,260.84830311729456,3.636579273384996
1255,9.41660220141057,-277.47267061506864,249.35385417428915,9.36597967115813
1256,-0.2629953242721967,-234.0814311610884,307.4514739115839,5.402914685037104
1257,-8.485388454893837,-250.20358264853712,330.21831405794364,2.7471672308747657
1258,-0.4471152620972134,-300.5150082760956,280.8853689300304,10.56068417406641
1259,7.419524786644615,-315.25756168022053,210.3626426772389,7.335636803210946
1260,1.112023010995472,-288.02147334464826,190.21949098390175,-0.5132887113431934
1261,-4.213478630030295,-212.2860120617552,326.4016899340786,-0.9694626398413676
1262,-6.173943619971396,-237.5941733288346,352.5653202587273,-1.745762817270588
1263,-11.456106949481182,-301.8203525010031,221.01544956010184,-1.7564257258491125
1264,-9.888654130656503,-252.31135782017373,255.07080537488216,5.20071611070307
1265,-12.035589503342637,-239.96935978007969,271.8860478020215,5.885424418680486
1266,-19.68545343197184,-265.2654400228057,172.94153600904974,-1.632701308306423
1267,-22.133334553887835,-270.4082817212329,132.2515911743685,1.9174749939556928
1268,-22.13345440031844,-231.58737204782665,162.86167197243776,6.771925769440713
1269,-16.222364463523263,-130.99138515623054,310.83219832676696,-1.321375734245521
1270,-14.64136858555139,-179.90285553428112,294.2304695484054,-7.342899447627133
1271,-20.570439134447952,-239.2285576822469,131.79758333682548,-8.005388848512666
1272,-17.61777292638726,-148.43593686277745,219.8267133527552,-14.362392703609656
1273,-9.426909536196035,-163.89184290758567,265.1781140379608,-17.181974659964908
1274,-9.210156410204943,-212.14346612384543,151.13859509321628,-14.81918186924304
1275,-11.7186431211303,-160.01826107903617,174.9236239643069,-17.24818110758497
1276,-10.129463489342015,-133.01514229440363,243.4378963800264,-18.51393313938752
1277,-16.664898194983834,-165.49568285566056,204.67190907755867,-20.134995718093705
1278,-19.837906222222955,-195.84170071786505,113.38903756646324,-14.45567687212315
1279,-11.168764362650109,-158.33276526152622,109.89224649345852,-6.29921404394554
1280,-16.547007062486955,-73.10673123109154,249.75943387311415,-19.22373048157897
1281,-23.107186415916654,-61.89490606059553,326.56219977579894,-28.06459469492256
1282,-17.725821054409607,-135.3925669801538,193.0617394911824,-23.427898848167388
1283,-14.442163461499147,-85.0217735512997,176.9160957405984,-22.351611799298556
1284,-4.829847172528389,-3.4691980383358896,317.8428711364104,-13.826011636294425
1285,3.919700486265356,-80.20260301284725,252.8755226524372,-2.4641645313677145
1286,-10.107968531388906,-103.3592923125252,151.6875324737921,-6.021369362671976
1287,-32.204087335339864,-43.32887782744365,211.9610761283257,-26.119117065070892
1288,-34.69554791720293,-29.59348118997877,259.5506357549748,-34.11523449770175
1289,-29.079409993442823,-63.92145168100251,191.48513836291383,-19.545724364405032
1290,-26.994559724611463,-80.49679276469396,120.92122920250404,-15.685831483613583
1291,-22.60375406606181,32.61022181273438,232.16625743100303,-18.63201576432766
1292,-30.51920178731234,96.5656433799304,350.1354452347441,-18.480515658324293
1293,-37.35768786482368,-11.762371473712848,220.87637241161428,-27.825460985513928
1294,-27.449176676564093,-34.383096573874354,93.8713930209924,-30.78859892312903
1295,-23.715047252677323,66.125492540712,192.0313565444376,-27.648411872454744
1296,-23.2178931807357,85.21553469327046,242.0275058223342,-30.2930615373989
1297,-19.286815521008972,35.11912634660257,126.8343424036284,-25.600342994002855
1298,-16.699711240435136,56.71005031187087,95.24277081340551,-20.750665152896545
1299,-15.86707264472352,120.31917823676486,169.55499293192406,-27.5254133158669
1300,-21.403265199813177,99.17676746181678,156.64818427930004,-30.89107253180555
1301,-22.66533596242516,47.36815395974554,52.41843421608792,-25.01392056014447
1302,-25.52111639663053,79.73018592206063,32.007978292764165,-23.15681080155628
1303,-30.2381861742324,146.4244959859643,132.2655954476213,-25.225990557250043
1304,-20.94280074661947,140.6333554778248,152.26531959345448,-23.11150501895463
1305,-16.359820644684078,96.95917891321004,32.15110521711176,-19.545714858497377
1306,-17.232109556345677,150.08514320937684,21.39854751425446,-13.78603134941659
1307,-11.158110065480288,215.62130198423984,157.59432492373162,-12.084004147043744
1308,-9.51828273859428,141.88738616375483,129.29671032732583,-16.949526866417727
1309,-13.248542197943609,122.57558248541318,29.432517217705023,-18.396500867740546
1310,-16.374246739636874,236.28641665971367,158.86133669922128,-17.53646190201107
1311,-14.680235857900698,238.48143388557943,238.0367481838912,-13.943506854113366
1312,-11.668841887083545,157.36101398197934,118.30036712239962,-12.62651284655294
1313,-11.941862996285636,134.70374319207622,65.96029111143434,-18.160428508548648
1314,-12.564466194657143,160.31306531233713,114.56991764093982,-22.65807946238056
1315,-18.666027205257706,217.34376099612564,206.47528044111093,-23.239522269584995
1316,-22.175817768700654,177.08074211893836,184.4029709316092,-18.30603689850977
1317,-12.827195371181006,87.45109503431013,49.543541941267904,-14.16196659322668
1318,-6.591491940700507,160.2418046439998,138.2830021030968,-17.314375787194876
1319,-11.445538424872211,217.61912387196207,257.5361719144857,-22.358632090577885
1320,-16.369876095759537,131.35358642187202,129.23790900682798,-24.33639435886289
1321,-5.907972658595099,135.91459569433937,82.11133472470101,-14.819028355261253
1322,10.108555983353654,182.33834468090208,143.68635834375164,-1.0413099097349914
1323,4.359123080439531,138.27703163353726,112.90344750985967,-8.284709627223492
1324,-4.4666817810393695,114.45733616891084,76.87163891666569,-18.4966604979345
1325,1.8281590437691195,111.67373570840572,41.55644689913606,-10.848717208737073
1326,-1.6940023478919102,138.96192865120247,78.26861047616694,-13.0091085038257
1327,-14.663523511799212,160.3322924801032,163.43186306778807,-20.439899159278863
1328,-15.806655163878531,74.1939409126062,57.93929162825225,-17.666219476699553
1329,-12.564651710485125,51.426813081954606,-29.16673244960839,-20.883545322632926
1330,-15.528820706010263,130.50991562241688,122.44657083053607,-26.07894332467913
1331,-18.166307626448543,84.0648710130481,144.00503716332605,-24.5187774309652
1332,-15.8463631501927,20.72718787426129,10.932108609820716,-18.87118082230154
1333,-15.764513417396302,93.15619335632071,101.4077052870416,-13.791091687705377
1334,-27.84182375338605,93.60243309411452,166.57233683316736,-12.941967989586374
1335,-31.26541091741456,26.762230228516277,49.10688474128256,-11.885040681035209
1336,-18.2617034133018,21.62216327758506,32.56627226487035,-9.4266689660235
1337,-14.60818571733398,22.20940579043236,61.28614664176712,-7.610259768705418
1338,-12.572008017352346,54.66702524025459,93.20812781131826,-5.539815456318365
1339,-13.004600478663631,55.24239866860444,113.3037659128313,-5.837609899328527
1340,-18.93087840161388,-16.906654577876907,31.49936459917808,-11.301313277171175
1341,-16.523634281023988,35.051655180810485,52.76760162523715,-9.843771532569008
1342,-20.362249229208828,137.66945823875722,221.99672480591107,-2.3573058744268565
1343,-21.27989805591642,55.06248840439366,198.68322308914503,0.0916016324918018
1344,-12.329928992334317,2.474660382140428,67.56221010617446,3.5563788747167564
1345,-7.519675373889186,85.21535404241877,153.30177440668922,3.7276200856613286
1346,0.2389133427786873,57.0473570835311,191.65592297987317,3.458627984087798
1347,3.5484582246353966,18.324318922299422,106.01754405908288,6.764336069332785
1348,-0.9129996017727536,58.75085087941261,128.4772206612397,3.797078672760108
1349,-1.0955053430734552,42.88864637567895,130.77292215102352,-1.1261831890660687
1350,-4.731695176851645,25.866886177274864,107.2277536035981,-7.107751083491166
1351,-9.688190373999532,30.262364543392323,105.42437289538792,-8.615207047754666
1352,-2.647293519381492,22.487177077739037,72.63107230293099,-1.6854681410804917
1353,-6.82864454369701,100.32191697717644,196.27647318399977,-4.257655412089662
1354,-22.599430987305823,131.96897241854458,299.6459329035133,-13.356839874577418
1355,-18.05233805214812,22.234221679042093,116.64844127430116,-10.57507086312762
1356,-10.990956194589671,58.68381084609428,105.2211397809442,-5.872283295822854
1357,-6.397199726074177,122.3868066513678,247.78207245888188,-10.998291747055193
1358,-0.7253151118129608,33.46770436130464,137.77888826385606,-17.05491734833049
1359,-12.211240465119772,34.11924249489675,71.62474835210014,-13.979809455384384
1360,-15.416747876763113,67.00008025034913,133.7356248333817,-1.7322436327231117
1361,-12.500105672719656,40.22109421167988,116.80894141783938,2.851818407441897
1362,-18.741560784954345,32.33875030459603,73.96190286637284,-2.155307823522889
1363,-8.206760528701125,36.63962881648331,67.83394551381934,-3.238599202559272
1364,0.7386474117956823,100.22152456239564,145.8375365481479,-6.0612648677270045
1365,-6.891730873932829,129.51006504290854,200.86072057357524,-11.847480698233994
1366,3.624442876985995,27.75102302117739,72.95211746904533,-5.417825112235732
1367,25.15454990667058,7.493318251858,-9.959969842573628,12.377044325345196
1368,10.598930228865356,109.09956295063604,133.35431469930336,5.51756869613746
1369,-15.290126025254722,110.65248243621318,178.65252744418103,-19.0844032416062
1370,-4.547595752606867,55.02837485005148,47.504049112903886,-14.524027412873693
1371,-5.463408493887982,92.2476884686912,58.69637678551953,-8.478957456281933
1372,-20.73444730813208,121.15033061031136,136.0943516823463,-14.767193586667418
1373,-3.767193199164467,67.0221689096361,84.46103174774908,-8.068569593560824
1374,-2.5636533138458617,46.14834227185929,27.678028934984468,-6.031613996368833
1375,-21.049907417909708,70.58242034667637,30.32617221563123,-5.030001771447132
1376,-24.52418625466817,106.24940813315334,112.42156234907452,-12.83306129767152
1377,-30.17813084571389,109.64080751460278,164.3199556375621,-32.56558620209398
1378,-25.871100862830644,45.37717945771874,52.42857483169064,-24.79829758021515
1379,-15.334238003837529,61.85285023832694,46.029163871658966,-13.42872303603508
1380,-15.827298296877416,89.84069853121764,99.36682890472002,-20.381721027428284
1381,-8.719723665810307,31.67710690200329,8.966647339984775,-20.03986259183148
1382,-1.0742157788481563,35.14096996121225,-1.2687127699609846,-14.225720996648306
1383,-10.204385543853276,63.0596605304454,61.57955804478843,-13.194973566016415
1384,-20.860558200001837,49.35089676937787,81.10225398140028,-18.33663006816641
1385,-13.76675175233686,-15.160041567200096,14.122504448401742,-20.3077903471858
1386,-4.113737165826024,-66.60769145823724,-99.28773706080392,-15.663316999009112
1387,-9.35283293086104,29.47478025700548,-14.568722624098882,-15.2863559974503
1388,-10.343978639226409,82.22345251897059,106.40333322039804,-17.002769336264464
1389,-6.363468931434909,-34.162647281744285,-21.481693836743943,-19.816502169982414
1390,-7.735536554711871,-68.50825591609464,-134.69015621440485,-19.81617999327136
1391,-2.548113300872501,-0.7146395352901891,-51.17324991628993,-15.697226562420838
1392,4.781148357200436,-10.915458516043143,-23.22345707914792,-21.52232509142777
1393,10.048670504824258,-47.60496341908584,-106.42854745313524,-20.439335330374888
1394,7.847348549286835,-37.56072031067743,-145.20349024538882,-9.13301853572193
1395,-2.8131715087220077,-16.28950900907512,-127.77051585610025,-13.77424872215488
1396,3.934225223492831,-7.668236763303867,-87.31347530940548,-16.840162881097058
1397,13.761355823895428,-47.470582525747886,-145.42124772863465,-8.458242600332596
1398,4.469315645284951,-78.44985230188468,-275.3072980209254,-0.6018435272417264
1399,-1.5977233273442837,22.452295638366195,-148.28186906478368,2.2681341180868912
1400,-0.4630166885326616,62.0096833228672,-14.286892091389744,-5.209376577142393
1401,0.8708337783755269,-43.36076567814598,-204.77221612492576,-5.179955243365839
1402,-0.0852698843227699,-2.215039613060071,-227.88081454485652,-4.891426140937256
1403,-5.106910246773623,49.17106890783543,-112.17227400792764,-15.28738223008986
1404,-1.7637211152759846,-36.60271826422104,-220.44083158764988,-11.260429152142024
1405,2.7113732673460618,-46.70464558328968,-277.1328534707427,-3.0778981228359044
1406,-0.6560634755587671,-21.95428064766384,-232.40140086133036,-3.0784691848093644
1407,-3.403469741839217,-22.519547213501937,-219.8592223955784,-1.9012556002126075
1408,-1.7662885434692726,-51.15619847237394,-256.77462885552086,0.2950485795154236
1409,3.3113959612092003,-104.42299573591936,-335.7395655831788,6.218268557800911
1410,3.338633145642234,-82.53801180569462,-326.1616812888533,9.690008045115974
1411,1.65244817812345,-44.69773030253964,-252.4653513985686,1.0317925038689282
1412,0.1210911142698023,-89.02503242871171,-263.22018864075653,-11.565000886301275
1413,-7.71287515811855,-176.13201874963488,-395.93276820192114,-6.331011915346608
1414,-10.550748701003611,-134.22100655632676,-387.5077893969137,1.4835405761259608
1415,-2.4904934170481283,-24.20134265949673,-170.87666677101515,-13.653035361348884
1416,6.691265998699237,-111.7525490779226,-212.6532620701473,-22.08697651163675
1417,4.208587276778417,-173.13128049940133,-365.7074589587282,-18.30825251308852
1418,-1.534279117389815,-100.07207088362338,-261.20770806237124,-18.39806445405702
1419,1.8906557095760943,-147.3746832245306,-239.73852700996213,-10.61606072547147
1420,1.4199431712040678,-192.2770414876577,-319.4654567113612,-2.8431289022846613
1421,-7.150489510211628,-169.12712271491182,-299.4605147235561,0.4852674965804908
1422,-16.91306451318087,-153.74133433723182,-244.45828296197575,4.368364451511297
1423,-21.407466744014528,-129.02122823635,-167.55433415062726,3.8676461936265696
1424,-21.227051646565087,-180.128601210934,-219.7426889121998,5.236561437515775
1425,-22.3562351379951,-208.31409509167133,-297.42738490365446,10.633015422616154
1426,-23.99492111694417,-102.81624878507864,-108.59050725097768,7.5157243291905615
1427,-24.582151950220577,-94.08319924521491,-3.253866531420499,-4.068994258152088
1428,-19.240505281835794,-200.45432082825573,-177.2203999303747,-5.085877480421914
1429,-14.55867202108493,-159.90943216570304,-148.30850864690728,0.0938592046732083
1430,-15.3400669193652,-107.3420529608702,-11.094138985034078,-6.199969983310439
1431,-15.527124196494697,-183.05902773277197,-95.56703728460708,-13.017623270774491
1432,-18.39127581199864,-211.7401496029779,-142.98265808750875,-9.371023439249257
1433,-17.585267587623093,-190.68781836044215,-84.76295749796554,-3.3594122382928617
1434,-10.725727820565226,-159.10124008209095,-29.71805994375609,-3.321017474954715
1435,-7.019223257928388,-145.00238403001276,-6.983868862967938,-5.831386675854446
1436,-4.853885594842723,-176.57724513708672,-54.54991148598492,-1.9122977371443997
1437,-10.486908790946472,-115.18501970283978,6.053492545383051,3.0575755239697173
1438,-17.499611303093843,-55.70906462986022,110.74705891753548,-2.3757399322348647
1439,-9.018529377412053,-146.82603486577864,5.936603881185874,-11.158336878055708
1440,-4.258027628180571,-158.54778853800963,-42.64781676442362,-12.29125614525401
1441,-10.875467221077995,-63.99408323326497,104.20058325654828,-11.660306877281982
1442,-13.22673350799596,-71.8579398846341,133.01235320488922,-14.213071997568475
1443,-12.555648230481893,-124.96456716941611,38.0691565386951,-19.44296989563736
1444,-10.792603403388055,-102.21233905329429,23.492180683882907,-22.115021582110785
1445,-9.014204261358827,-60.455853916486376,82.40669620828703,-12.892887500900542
1446,-12.614972782379482,-76.39130351750646,90.79084496130235,-7.7577080783376
1447,-20.9368989476352,-90.42609680660826,39.02550773927942,-16.10603626348893
1448,-25.953075912839267,-72.42896749400825,22.236660760827363,-19.562387009355007
1449,-24.217725166818127,-16.78615668216662,113.96252219658344,-24.81025934850913
1450,-16.345913246273994,8.311898349813418,152.01226107007824,-36.17015492421342
1451,-12.7067059436813,-56.2661005340924,8.124030552105978,-38.21748291119002
1452,-21.3796641555964,-19.794521764211822,-8.418672819854692,-35.60892317487742
1453,-20.94920719962101,66.6490552238538,69.69384626322426,-26.77217168273637
1454,-12.153966083191335,45.2183098657988,-2.35310264211148,-15.352966840466252
1455,-16.188230100495275,34.69145429643686,-59.47595455078408,-18.495386283961125
1456,-23.705282546347007,79.72451922901382,-42.7328178267926,-22.863120831461856
1457,-17.74770855496172,112.13373494398547,-24.00629919511266,-22.38584446709137
1458,-2.285494465962984,84.3671566406847,-78.47107217786834,-26.3420805928763
1459,-0.8743313899030909,81.64635699671635,-137.04745289403945,-28.818129916791804
1460,-11.28888443048345,167.84275803765922,-51.01858865679242,-32.72894008422736
1461,-9.26906500494806,202.15267908220997,19.371524951420724,-33.3243096031365
1462,-4.126280821394175,129.92681368169724,-70.59743431117386,-25.94919459713856
1463,-8.140491580707021,106.25528249824129,-149.4672289865557,-26.70976189809153
1464,-7.004386421991512,155.0308185412723,-80.41916774050333,-31.08090840873774
1465,-2.7053073589340784,136.25739924790105,-63.1867055753246,-25.683271652960684
1466,-3.2614972718292847,88.86759744409937,-162.103246105602,-11.676495059742592
1467,0.8566546307993121,100.90977950183152,-167.06793273286894,-1.593949495756533
1468,1.5997428050031886,123.45099019249028,-107.5314859864302,-6.3041985558811575
1469,-0.6036482146591879,93.8412027804734,-129.2796170078218,-13.049191023164894
1470,8.09880739368964,52.33418853362673,-210.05295550869775,-9.668208184710238
1471,13.939634281559847,68.92004647575959,-236.9407854471356,-0.974775330570992
1472,11.633030039607547,130.8958971015527,-100.83067575888708,-1.3099310781108215
1473,11.534609252004884,128.04344507337373,-8.308846530737355,-3.389192596252542
1474,17.618845730205067,30.75259832173469,-167.01418223697692,9.91157398239011
1475,20.20207335351733,43.61732775082055,-198.3252015889157,12.406637947075067
1476,10.531430171453394,85.13352007509093,-100.33516911137848,-4.503169540141244
1477,6.542981450736988,-1.129006972827483,-200.3428398715332,-14.336470989161173
1478,7.648374760756269,-17.724065162590705,-241.8230465629604,-11.89586064137984
1479,4.450142790970858,22.329532363452017,-170.09518423653208,-3.544304169830866
1480,9.484082461043728,16.833329745510127,-154.0694006155245,-0.229087388201151
1481,10.17733430286171,-29.441839366336357,-200.781263835961,-2.1307258313172497
1482,1.4981124913319943,-78.98083232904901,-276.048053534003,-0.56615851377137
1483,7.375772346160375,-6.459827833430609,-187.2345062585082,5.831657155766152
1484,16.464652768452652,61.90165259013884,-37.15212608757429,13.588610428443644
1485,5.055559349711984,-45.40552253677743,-131.82351570227183,9.632767290633636
1486,-1.952667842793744,-126.05636191988016,-273.84606831893325,6.701237626839429
1487,10.8525357558392,-42.26387470521149,-155.86948104319163,18.274441115790975
1488,51.20426801056601,19.091226004675264,-30.63759658066556,57.48972053651232
1518,79.82672899327008,-57.26445613714168,0.3313060977961868,59.15773013269063
1519,72.46196665748721,-64.60335158917587,10.161719772499056,38.90092797443504
1520,55.00925670447759,-117.81605023524024,-69.18859957321547,21.173989029601216
1521,45.71330619958462,-136.00160448014503,-160.08936117147096,32.833906379528344
1522,49.544865489180665,-30.393572583969217,-40.08247372624464,36.85283172799973
1523,55.81116613635095,-17.89881056372542,30.26473520579748,24.896724528691266
1524,44.24655617686221,-123.8179364792304,-162.565745574655,21.353978505998384
1525,30.59777208720334,-58.37420613324503,-141.6347390168812,16.984668739605695
1526,34.51077192649245,7.107151850592345,-28.31898277392611,7.659140431846026
1527,32.08597836212721,-60.920395800319966,-134.79831594694406,6.179673573991749
1528,21.32187691074796,-77.55412332352716,-197.56743003195152,13.326564789167604
1529,17.902080393396318,-46.98656899185153,-164.80113994074054,14.650997788470704
1530,20.304240550205577,-1.2549531541881151,-92.34702743962409,11.093575695122126
1531,21.987044144188985,-14.11718470044434,-74.60427962965332,12.505700552952476
1532,15.865349564526696,-108.6913974446943,-202.59013340924864,12.117491405981127
1533,12.438368955801709,-88.71316593518713,-196.79241051361896,8.50183494205703
1534,15.39720961987041,-45.644709468993824,-63.80604732036591,5.536558665335178
1535,13.913594748126345,-156.51374781661434,-157.23481712932698,0.7996518623258453
1536,10.803669169428758,-182.07492477120832,-257.34911015746184,-2.923236033384456
1537,1.436421228281688,-97.42964658106212,-141.4557385740336,-6.347287907090504
1538,-2.488155777391512,-118.99675388005562,-120.74808945390396,-11.018487709312469
1539,5.824984730570577,-160.21477969252737,-217.9463529158384,-9.41576325512142
1540,-0.1668073658365756,-129.90640343620908,-218.8622220819816,0.1751402215159032
1541,-6.808920291834511,-80.10747047403129,-126.56828179094008,2.9249221601639874
1542,-4.150658060447313,-79.75821666093543,-95.32461198675446,-6.850603566679638
1543,-6.071762254403438,-77.74373137013754,-120.1125114276074,-8.093832252081484
1544,-7.478471407201141,-14.172836447192822,-46.87143778777681,-5.75566337472992
1545,-17.64718869054923,-10.233183257689234,0.9968017919454724,-17.717474239238072
1546,-20.85276748376782,-54.61877621716121,-44.142653620103374,-21.97201149063767
1547,-10.124893786443865,-85.8783664656221,-110.02604052377863,-12.52825051007676
1548,-16.16135810414562,-95.5134103372111,-163.41250497312285,-6.230484626838006
1549,-20.01166780339554,-47.67863069172017,-58.00669973669574,-6.961765805841424
