,TP9,AF7,AF8,TP10
0,-75.1953125,-57.6171875,-479.98046875,-65.91796875
1,-81.54296875,-8.30078125,-390.13671875,-67.3828125
2,-82.51953125,-26.85546875,-398.4375,-68.84765625
3,-86.42578125,-66.40625,-465.8203125,-73.73046875
4,-88.37890625,-74.70703125,-458.984375,-78.61328125
5,-85.44921875,-51.7578125,-416.9921875,-81.54296875
6,-86.42578125,-2.44140625,-348.14453125,-77.1484375
7,-88.8671875,-115.72265625,-442.87109375,-75.1953125
8,-89.84375,-83.0078125,-480.46875,-71.77734375
9,-86.42578125,94.7265625,-193.84765625,-75.1953125
10,-71.77734375,-29.296875,-247.55859375,-86.42578125
11,-75.1953125,-51.26953125,-364.2578125,-84.47265625
12,-85.44921875,13.671875,-278.80859375,-75.1953125
13,-75.1953125,4.39453125,-241.69921875,-76.171875
14,-68.359375,-28.80859375,-305.17578125,-73.2421875
15,-67.87109375,8.30078125,-282.71484375,-74.21875
16,-61.5234375,24.4140625,-238.28125,-71.77734375
17,-50.78125,-22.94921875,-284.1796875,-76.171875
18,-55.17578125,-5.859375,-248.53515625,-75.1953125
19,-56.640625,-20.99609375,-321.77734375,-61.5234375
20,-58.10546875,70.80078125,-219.23828125,-62.01171875
21,-66.89453125,43.9453125,-140.13671875,-69.3359375
22,-65.4296875,-34.66796875,-275.390625,-73.2421875
23,-64.94140625,47.8515625,-198.2421875,-78.125
24,-66.40625,75.1953125,-114.74609375,-79.1015625
25,-46.38671875,30.2734375,-165.0390625,-75.68359375
26,-60.05859375,-21.484375,-256.8359375,-82.03125
27,-75.1953125,2.44140625,-230.95703125,-84.9609375
28,-68.84765625,22.4609375,-182.12890625,-82.51953125
29,-81.54296875,2.44140625,-214.35546875,-86.9140625
30,-78.61328125,-46.875,-276.3671875,-81.54296875
31,-64.94140625,1.953125,-216.796875,-72.265625
32,-63.4765625,120.1171875,-6.8359375,-74.21875
33,-62.5,21.484375,-79.1015625,-76.66015625
34,-66.40625,4.8828125,-158.203125,-73.2421875
35,-67.3828125,39.55078125,-104.98046875,-68.359375
36,-58.59375,18.5546875,-82.51953125,-68.84765625
37,-62.01171875,8.30078125,-75.1953125,-72.75390625
38,-70.80078125,-11.71875,-113.28125,-71.77734375
39,-63.96484375,46.875,-20.99609375,-65.91796875
40,-51.7578125,1.953125,12.6953125,-62.98828125
41,-57.6171875,-64.94140625,-79.58984375,-61.5234375
42,-64.94140625,3.90625,-6.34765625,-68.359375
43,-54.19921875,24.90234375,73.2421875,-65.4296875
44,-45.8984375,-25.87890625,43.9453125,-61.5234375
45,-48.828125,-83.984375,-21.97265625,-60.05859375
46,-53.7109375,-110.3515625,-115.72265625,-47.36328125
47,-59.5703125,-1.46484375,51.26953125,-55.17578125
48,-49.31640625,-24.4140625,139.16015625,-63.4765625
49,-39.0625,-137.6953125,-40.0390625,-54.6875
50,-46.38671875,-153.3203125,-93.26171875,-55.17578125
51,-52.24609375,-61.03515625,52.734375,-56.640625
52,-54.19921875,-56.640625,92.7734375,-55.17578125
53,-45.8984375,-204.1015625,-99.609375,-44.921875
54,-46.38671875,-178.22265625,-172.8515625,-45.8984375
55,-59.5703125,16.11328125,105.95703125,-65.4296875
56,-53.7109375,-79.1015625,101.5625,-76.66015625
57,-43.45703125,-124.0234375,-53.7109375,-75.68359375
58,-50.29296875,-70.3125,-21.484375,-75.1953125
59,-49.31640625,-84.9609375,-4.39453125,-69.82421875
60,-40.0390625,-133.7890625,-67.3828125,-63.4765625
61,-38.0859375,-120.60546875,-95.703125,-58.59375
62,-38.57421875,-72.75390625,-34.1796875,-45.8984375
63,-44.43359375,-93.75,-32.2265625,-38.57421875
64,-51.26953125,-119.140625,-98.14453125,-41.015625
65,-62.01171875,-98.6328125,-106.93359375,-38.57421875
66,-62.01171875,-58.59375,-61.03515625,-32.71484375
67,-40.52734375,-23.92578125,-1.46484375,-24.90234375
68,-31.73828125,-39.55078125,-1.46484375,-36.1328125
69,-37.59765625,-106.93359375,-166.50390625,-35.64453125
70,-31.73828125,33.69140625,-0.9765625,-17.08984375
71,-27.83203125,64.453125,141.6015625,-33.203125
72,-31.25,-34.66796875,-31.73828125,-42.48046875
73,-22.94921875,0.0,-19.53125,-30.76171875
74,-18.5546875,51.26953125,63.4765625,-29.296875
75,-16.11328125,52.24609375,61.5234375,-23.92578125
76,-12.20703125,17.08984375,-15.13671875,-14.6484375
77,-18.5546875,33.69140625,-33.203125,-11.23046875
78,-9.27734375,124.51171875,107.91015625,-20.99609375
79,-1.46484375,88.8671875,93.75,-19.53125
80,-18.5546875,35.64453125,-25.87890625,-17.08984375
81,-27.34375,112.3046875,60.546875,-22.4609375
82,-31.73828125,124.51171875,135.25390625,-17.578125
83,-31.25,101.5625,101.5625,-21.484375
84,-16.11328125,9.765625,-67.87109375,-16.11328125
85,-26.85546875,107.91015625,-16.11328125,-10.25390625
86,-42.48046875,229.98046875,236.328125,-28.3203125
87,-29.296875,100.09765625,115.234375,-29.296875
88,-24.4140625,91.796875,31.25,-27.34375
89,-33.69140625,125.48828125,57.12890625,-33.203125
90,-30.76171875,167.48046875,129.39453125,-35.15625
91,-34.66796875,126.953125,122.0703125,-38.57421875
92,-41.015625,87.40234375,-25.87890625,-35.64453125
93,-42.96875,178.7109375,82.03125,-38.57421875
94,-42.96875,168.9453125,150.87890625,-45.41015625
95,-35.64453125,138.671875,61.03515625,-37.59765625
96,-40.52734375,143.06640625,58.59375,-27.83203125
97,-41.9921875,195.80078125,139.6484375,-31.25
98,-37.109375,174.31640625,129.8828125,-39.55078125
99,-28.80859375,146.97265625,62.01171875,-34.1796875
100,-30.2734375,137.20703125,45.41015625,-21.97265625
101,-45.8984375,148.4375,59.08203125,-32.2265625
102,-51.26953125,195.80078125,112.3046875,-44.921875
103,-45.41015625,130.859375,52.734375,-37.109375
104,-40.52734375,174.31640625,112.3046875,-32.71484375
105,-39.55078125,283.203125,291.015625,-34.66796875
106,-35.15625,200.1953125,187.01171875,-30.2734375
107,-26.3671875,206.0546875,158.69140625,-27.83203125
108,-20.01953125,239.2578125,192.3828125,-31.73828125
109,-16.11328125,259.27734375,250.48828125,-18.06640625
110,-12.6953125,220.21484375,231.4453125,-11.23046875
111,-8.7890625,221.19140625,157.71484375,-16.6015625
112,-7.32421875,286.62109375,255.859375,-9.765625
113,-0.48828125,232.91015625,259.27734375,0.0
114,6.34765625,228.02734375,222.65625,-1.953125
115,-14.6484375,239.74609375,202.1484375,0.0
116,-20.5078125,316.89453125,335.44921875,-3.90625
117,0.48828125,305.17578125,396.484375,-11.23046875
118,0.0,221.19140625,241.2109375,-7.8125
119,-9.27734375,231.4453125,246.09375,-1.953125
120,-3.41796875,271.484375,316.40625,2.9296875
121,6.34765625,258.7890625,309.08203125,1.953125
122,6.34765625,176.26953125,182.12890625,-1.953125
123,7.32421875,206.0546875,205.078125,-8.30078125
124,-2.44140625,244.62890625,309.08203125,-4.39453125
125,-2.44140625,213.37890625,258.7890625,2.44140625
126,-2.9296875,165.0390625,175.78125,-5.859375
127,-23.4375,204.58984375,190.91796875,-15.13671875
128,-22.4609375,335.9375,393.06640625,-20.01953125
129,-13.671875,236.81640625,318.359375,-18.06640625
130,-19.53125,214.84375,219.7265625,-16.6015625
131,-22.4609375,254.8828125,260.7421875,-15.13671875
132,-20.5078125,241.2109375,276.3671875,-8.30078125
133,-23.92578125,201.66015625,211.9140625,-15.13671875
134,-23.4375,208.984375,182.12890625,-22.4609375
135,-29.296875,245.60546875,243.65234375,-21.97265625
136,-41.9921875,191.40625,202.1484375,-31.73828125
137,-37.59765625,151.3671875,114.2578125,-36.1328125
138,-39.0625,198.73046875,120.1171875,-41.50390625
139,-35.64453125,238.76953125,200.1953125,-48.33984375
140,-39.55078125,213.37890625,201.66015625,-52.734375
141,-43.9453125,158.69140625,91.796875,-48.33984375
142,-36.62109375,101.07421875,-58.59375,-34.66796875
143,-41.50390625,206.0546875,94.23828125,-35.64453125
144,-40.52734375,237.79296875,240.234375,-41.50390625
145,-34.1796875,118.65234375,35.64453125,-43.9453125
146,-43.45703125,140.625,16.11328125,-51.7578125
147,-55.17578125,193.359375,105.95703125,-59.5703125
148,-52.24609375,163.0859375,73.73046875,-55.17578125
149,-46.875,67.87109375,-84.47265625,-50.29296875
150,-55.17578125,138.18359375,-41.9921875,-56.15234375
151,-54.6875,231.93359375,144.53125,-62.5
152,-54.19921875,176.7578125,104.4921875,-61.5234375
153,-63.4765625,129.39453125,-10.25390625,-62.98828125
154,-61.03515625,138.18359375,-27.34375,-60.546875
155,-51.26953125,202.63671875,107.91015625,-54.6875
156,-54.19921875,160.64453125,58.10546875,-52.24609375
157,-57.12890625,171.38671875,16.11328125,-54.6875
158,-51.7578125,208.0078125,75.1953125,-55.17578125
159,-56.640625,168.45703125,70.80078125,-56.15234375
160,-63.96484375,126.46484375,12.6953125,-63.4765625
161,-67.87109375,131.8359375,-29.78515625,-63.96484375
162,-65.91796875,187.98828125,57.6171875,-63.96484375
163,-66.40625,187.01171875,115.72265625,-67.3828125
164,-66.40625,125.9765625,28.80859375,-64.453125
165,-68.84765625,131.8359375,-32.2265625,-54.19921875
166,-74.21875,203.61328125,69.3359375,-56.640625
167,-71.2890625,189.94140625,126.953125,-66.89453125
168,-72.75390625,105.46875,29.296875,-72.75390625
169,-72.75390625,98.6328125,-4.39453125,-77.63671875
170,-77.63671875,175.78125,98.6328125,-81.0546875
171,-83.49609375,147.4609375,83.49609375,-82.51953125
172,-82.03125,76.66015625,-36.62109375,-82.03125
173,-80.078125,73.2421875,-66.89453125,-71.77734375
174,-79.1015625,132.8125,46.38671875,-77.63671875
175,-71.77734375,139.6484375,84.9609375,-87.890625
176,-68.359375,14.6484375,-104.98046875,-88.8671875
177,-68.359375,55.6640625,-85.44921875,-79.58984375
178,-75.1953125,175.29296875,132.32421875,-72.265625
179,-80.078125,62.98828125,11.71875,-74.70703125
180,-79.58984375,46.38671875,-98.6328125,-80.078125
181,-80.56640625,111.328125,-12.20703125,-76.171875
182,-70.3125,88.8671875,22.4609375,-71.77734375
183,-65.91796875,40.0390625,-62.5,-75.1953125
184,-72.75390625,37.59765625,-91.30859375,-71.2890625
185,-71.77734375,56.640625,-83.49609375,-65.91796875
186,-64.453125,86.9140625,-1.46484375,-70.3125
187,-71.2890625,38.0859375,-23.4375,-76.66015625
188,-73.2421875,-20.01953125,-181.15234375,-76.171875
189,-70.80078125,86.9140625,-49.8046875,-69.3359375
190,-71.77734375,59.5703125,25.390625,-63.96484375
191,-68.84765625,-26.3671875,-110.3515625,-60.05859375
192,-61.03515625,-10.7421875,-112.3046875,-64.453125
193,-60.546875,20.5078125,-40.52734375,-63.4765625
194,-61.5234375,-12.6953125,-71.2890625,-56.15234375
195,-67.87109375,-75.68359375,-162.109375,-58.59375
196,-64.453125,-57.12890625,-105.46875,-51.26953125
197,-60.05859375,-24.90234375,-36.62109375,-50.29296875
198,-65.91796875,-12.20703125,-1.953125,-53.22265625
199,-64.453125,-111.81640625,-104.00390625,-46.875
200,-57.6171875,-84.47265625,-104.4921875,-48.828125
201,-55.6640625,29.78515625,106.93359375,-62.98828125
202,-56.640625,-74.70703125,21.484375,-68.84765625
203,-59.08203125,-88.37890625,-47.36328125,-64.94140625
204,-66.89453125,-45.41015625,15.13671875,-61.03515625
205,-68.84765625,-60.05859375,64.94140625,-62.5
206,-62.01171875,-111.328125,17.578125,-68.359375
207,-67.87109375,-97.65625,15.13671875,-60.546875
208,-66.40625,-94.23828125,41.50390625,-54.6875
209,-59.5703125,-138.18359375,19.53125,-66.89453125
210,-59.08203125,-142.578125,24.90234375,-67.87109375
211,-49.8046875,-94.23828125,59.08203125,-56.15234375
212,-54.19921875,-51.7578125,145.01953125,-58.10546875
213,-60.546875,-112.3046875,137.20703125,-60.546875
214,-57.12890625,-185.05859375,40.0390625,-61.03515625
215,-63.96484375,-182.12890625,-28.80859375,-56.640625
216,-63.4765625,-75.1953125,131.34765625,-55.6640625
217,-60.546875,-136.71875,157.2265625,-62.5
218,-65.4296875,-215.8203125,-0.9765625,-59.08203125
219,-67.87109375,-177.24609375,41.9921875,-61.5234375
220,-67.87109375,-170.8984375,91.796875,-67.3828125
221,-68.84765625,-188.4765625,31.25,-70.80078125
222,-64.94140625,-220.21484375,-23.92578125,-67.3828125
223,-59.08203125,-199.21875,2.44140625,-55.6640625
224,-59.5703125,-76.171875,191.40625,-58.59375
225,-63.96484375,-118.1640625,174.8046875,-65.91796875
226,-75.1953125,-209.9609375,-2.9296875,-62.98828125
227,-78.61328125,-144.53125,36.1328125,-63.96484375
228,-69.3359375,-92.28515625,155.76171875,-69.82421875
229,-69.3359375,-147.94921875,93.75,-67.87109375
230,-77.1484375,-125.0,56.640625,-65.91796875
231,-66.40625,-69.82421875,115.234375,-59.5703125
232,-60.05859375,-108.3984375,110.83984375,-56.640625
233,-74.70703125,-146.97265625,57.12890625,-76.171875
234,-82.03125,-135.25390625,-1.953125,-75.1953125
235,-83.0078125,-32.2265625,136.71875,-69.3359375
236,-78.61328125,-20.99609375,249.0234375,-80.078125
237,-72.75390625,-108.88671875,100.5859375,-79.58984375
238,-70.3125,-87.890625,79.58984375,-79.58984375
239,-66.89453125,-31.25,174.31640625,-78.125
240,-65.91796875,-34.1796875,190.91796875,-71.2890625
241,-66.40625,-94.7265625,82.03125,-72.75390625
242,-80.078125,-83.0078125,77.63671875,-82.03125
243,-89.84375,6.34765625,221.6796875,-87.890625
244,-77.63671875,-38.57421875,155.76171875,-86.9140625
245,-76.171875,-126.46484375,6.8359375,-81.54296875
246,-82.03125,-63.96484375,57.6171875,-74.21875
247,-75.68359375,51.7578125,256.34765625,-86.42578125
248,-77.1484375,-35.64453125,173.828125,-87.890625
249,-71.2890625,-68.84765625,46.875,-67.3828125
250,-61.03515625,-17.08984375,94.7265625,-66.89453125
251,-66.89453125,-6.8359375,131.8359375,-80.078125
252,-72.75390625,-53.7109375,47.36328125,-80.56640625
253,-67.87109375,-51.26953125,-19.53125,-73.2421875
254,-76.171875,36.62109375,102.5390625,-82.03125
255,-80.078125,14.16015625,143.5546875,-90.33203125
256,-73.2421875,-35.64453125,37.59765625,-88.8671875
257,-68.84765625,-12.6953125,14.16015625,-80.56640625
258,-65.91796875,48.33984375,109.375,-80.56640625
259,-75.1953125,49.8046875,147.94921875,-87.890625
260,-73.73046875,-22.94921875,56.640625,-83.49609375
261,-72.265625,7.32421875,23.4375,-77.1484375
262,-74.21875,84.47265625,152.34375,-72.265625
263,-69.82421875,37.109375,186.5234375,-71.77734375
264,-66.89453125,13.18359375,153.3203125,-72.75390625
265,-70.3125,22.94921875,182.12890625,-80.078125
266,-72.265625,29.78515625,219.7265625,-84.47265625
267,-68.359375,22.94921875,211.9140625,-70.80078125
268,-70.80078125,-16.11328125,183.59375,-72.265625
269,-69.82421875,-5.37109375,182.12890625,-78.61328125
270,-65.91796875,117.67578125,356.4453125,-69.82421875
271,-76.171875,76.66015625,375.0,-73.73046875
272,-86.42578125,-32.71484375,179.19921875,-83.984375
273,-80.56640625,18.06640625,182.12890625,-93.75
274,-75.68359375,104.4921875,326.66015625,-88.8671875
275,-74.21875,27.34375,229.98046875,-78.125
276,-83.49609375,4.8828125,133.30078125,-78.125
277,-88.37890625,55.6640625,157.71484375,-69.82421875
278,-83.0078125,43.9453125,157.2265625,-65.91796875
279,-81.54296875,1.953125,75.1953125,-68.84765625
280,-79.58984375,3.90625,24.4140625,-73.73046875
281,-79.58984375,25.390625,37.109375,-83.0078125
282,-80.078125,23.92578125,18.06640625,-87.890625
283,-75.68359375,42.96875,27.34375,-83.49609375
284,-69.3359375,-28.80859375,-106.4453125,-78.125
285,-65.4296875,30.76171875,-72.75390625,-76.171875
286,-62.5,108.88671875,88.8671875,-81.0546875
287,-63.96484375,15.13671875,-62.98828125,-84.9609375
288,-70.3125,27.83203125,-105.46875,-74.70703125
289,-69.3359375,59.08203125,-84.47265625,-69.82421875
290,-64.94140625,45.8984375,-129.39453125,-75.1953125
291,-64.94140625,16.6015625,-178.22265625,-74.21875
292,-62.5,14.16015625,-171.875,-70.3125
293,-52.734375,19.53125,-187.01171875,-75.1953125
294,-48.33984375,73.2421875,-142.08984375,-85.9375
295,-59.5703125,-25.87890625,-239.74609375,-83.0078125
296,-61.03515625,-23.92578125,-332.51953125,-67.87109375
297,-60.546875,153.3203125,-86.9140625,-67.87109375
298,-68.84765625,37.59765625,-148.92578125,-71.77734375
299,-68.359375,0.9765625,-302.24609375,-56.640625
300,-77.63671875,56.15234375,-259.765625,-51.7578125
301,-84.9609375,38.57421875,-238.76953125,-65.4296875
302,-86.9140625,0.48828125,-316.89453125,-68.84765625
303,-92.28515625,41.015625,-317.87109375,-68.359375
304,-89.35546875,50.78125,-298.33984375,-72.265625
305,-76.171875,8.30078125,-366.69921875,-66.89453125
306,-74.70703125,34.1796875,-335.44921875,-68.359375
307,-77.1484375,26.85546875,-375.0,-69.3359375
308,-75.68359375,93.75,-277.34375,-68.84765625
309,-78.61328125,91.796875,-198.73046875,-69.82421875
310,-73.73046875,11.71875,-352.05078125,-65.91796875
311,-63.4765625,56.640625,-318.359375,-63.4765625
312,-64.94140625,111.328125,-191.89453125,-67.87109375
313,-73.73046875,69.3359375,-216.30859375,-63.4765625
314,-73.73046875,22.4609375,-304.6875,-56.15234375
315,-66.89453125,49.8046875,-283.69140625,-62.01171875
316,-55.17578125,64.94140625,-222.65625,-63.4765625
317,-64.453125,52.24609375,-229.98046875,-63.4765625
318,-69.3359375,7.32421875,-277.34375,-60.546875
319,-47.8515625,60.05859375,-213.8671875,-43.9453125
320,-39.55078125,180.6640625,-11.71875,-37.59765625
321,-39.0625,95.703125,-71.77734375,-36.62109375
322,-44.43359375,82.03125,-145.01953125,-36.62109375
323,-48.828125,124.0234375,-89.84375,-41.9921875
324,-48.828125,85.9375,-72.265625,-45.41015625
325,-53.22265625,62.98828125,-102.05078125,-59.5703125
326,-40.0390625,120.60546875,-70.3125,-57.6171875
327,-41.50390625,168.45703125,46.38671875,-42.96875
328,-52.24609375,104.98046875,20.5078125,-43.9453125
329,-49.8046875,85.44921875,-25.390625,-61.5234375
330,-47.36328125,58.59375,-88.8671875,-56.15234375
331,-44.921875,125.9765625,25.390625,-48.828125
332,-39.0625,183.59375,206.0546875,-58.59375
333,-34.1796875,71.77734375,35.64453125,-54.6875
334,-41.015625,81.0546875,39.0625,-54.19921875
335,-45.8984375,123.53515625,119.140625,-53.22265625
336,-50.29296875,105.46875,84.47265625,-55.6640625
337,-49.8046875,72.265625,25.390625,-59.5703125
338,-49.8046875,74.21875,44.921875,-57.6171875
339,-52.734375,115.72265625,110.83984375,-51.26953125
340,-54.6875,127.9296875,115.72265625,-48.33984375
341,-59.08203125,23.92578125,18.06640625,-45.8984375
342,-61.5234375,50.29296875,-26.3671875,-32.71484375
343,-61.03515625,215.33203125,220.703125,-36.62109375
344,-46.875,128.41796875,212.890625,-45.8984375
345,-41.50390625,75.1953125,76.66015625,-51.7578125
346,-43.45703125,131.8359375,148.92578125,-56.15234375
347,-37.109375,111.328125,166.015625,-45.8984375
348,-33.203125,76.171875,101.5625,-35.64453125
349,-33.203125,94.7265625,98.14453125,-29.78515625
350,-34.66796875,129.39453125,153.80859375,-31.73828125
351,-41.50390625,114.74609375,162.59765625,-36.1328125
352,-54.19921875,73.2421875,104.4921875,-39.0625
353,-54.6875,71.77734375,64.94140625,-42.96875
354,-45.8984375,105.46875,103.02734375,-38.57421875
355,-50.29296875,122.55859375,167.96875,-34.66796875
356,-46.38671875,94.7265625,156.73828125,-40.0390625
357,-47.8515625,10.25390625,-40.52734375,-36.62109375
358,-50.29296875,114.74609375,79.58984375,-37.109375
359,-39.0625,143.06640625,225.09765625,-39.55078125
360,-47.36328125,41.9921875,51.7578125,-41.50390625
361,-59.5703125,51.7578125,34.1796875,-50.78125
362,-43.45703125,96.19140625,119.62890625,-42.96875
363,-43.45703125,80.56640625,90.8203125,-39.0625
364,-57.12890625,28.3203125,16.11328125,-40.0390625
365,-50.29296875,13.18359375,-17.578125,-41.9921875
366,-48.33984375,65.4296875,78.61328125,-43.45703125
367,-52.24609375,55.17578125,113.28125,-47.8515625
368,-45.8984375,-74.21875,-58.10546875,-48.33984375
369,-49.8046875,-13.671875,-52.734375,-43.45703125
370,-65.4296875,107.421875,173.33984375,-58.10546875
371,-66.40625,-18.06640625,100.5859375,-64.94140625
372,-57.12890625,-27.83203125,26.85546875,-60.05859375
373,-55.17578125,14.16015625,88.37890625,-62.98828125
374,-62.5,-14.6484375,80.56640625,-70.3125
375,-70.80078125,-43.9453125,18.06640625,-70.80078125
376,-64.453125,-43.45703125,2.44140625,-59.5703125
377,-63.4765625,-38.0859375,18.06640625,-57.12890625
378,-68.359375,5.37109375,95.21484375,-59.5703125
379,-60.546875,-35.15625,75.1953125,-53.22265625
380,-55.6640625,-77.1484375,-66.40625,-38.57421875
381,-57.6171875,44.43359375,107.421875,-46.38671875
382,-56.15234375,8.30078125,158.203125,-63.96484375
383,-55.17578125,-61.03515625,21.97265625,-65.4296875
384,-59.5703125,-5.859375,86.42578125,-59.08203125
385,-56.15234375,34.66796875,168.45703125,-56.15234375
386,-55.6640625,-9.27734375,129.8828125,-51.26953125
387,-67.3828125,-50.78125,38.57421875,-50.29296875
388,-56.15234375,-39.55078125,57.6171875,-45.41015625
389,-38.57421875,-19.53125,94.7265625,-27.83203125
390,-63.96484375,8.30078125,100.5859375,-52.734375
391,-76.171875,-59.08203125,22.94921875,-73.73046875
392,-61.03515625,-29.78515625,40.0390625,-62.5
393,-73.2421875,87.890625,229.98046875,-73.73046875
394,-79.58984375,3.90625,135.25390625,-80.56640625
395,-78.125,-3.41796875,59.08203125,-71.77734375
396,-84.47265625,23.92578125,82.51953125,-75.68359375
397,-81.54296875,48.33984375,120.60546875,-84.47265625
398,-80.56640625,48.33984375,139.16015625,-80.56640625
399,-77.1484375,26.85546875,62.5,-73.73046875
400,-73.73046875,69.82421875,87.40234375,-79.58984375
401,-66.89453125,31.73828125,73.73046875,-78.61328125
402,-61.03515625,45.8984375,77.1484375,-67.3828125
403,-60.05859375,37.109375,19.04296875,-60.05859375
404,-57.6171875,99.609375,102.05078125,-59.08203125
405,-55.6640625,96.6796875,166.9921875,-52.734375
406,-46.38671875,21.97265625,32.71484375,-45.41015625
407,-43.45703125,43.9453125,59.08203125,-47.8515625
408,-44.43359375,77.63671875,109.375,-43.9453125
409,-47.8515625,78.125,105.46875,-47.8515625
410,-54.19921875,29.296875,36.1328125,-53.22265625
411,-54.19921875,50.29296875,19.04296875,-51.26953125
412,-51.7578125,99.609375,110.83984375,-48.33984375
413,-55.17578125,74.70703125,89.84375,-46.875
414,-58.59375,12.20703125,-0.9765625,-49.31640625
415,-54.6875,26.85546875,-48.33984375,-39.0625
416,-55.6640625,188.96484375,195.3125,-37.109375
417,-53.22265625,90.33203125,182.6171875,-48.33984375
418,-51.7578125,33.69140625,14.16015625,-57.6171875
419,-61.03515625,86.42578125,69.82421875,-56.15234375
420,-58.10546875,64.94140625,67.3828125,-42.96875
421,-37.59765625,26.85546875,34.66796875,-35.64453125
422,-32.2265625,38.57421875,63.96484375,-36.62109375
423,-43.9453125,74.21875,108.3984375,-43.9453125
424,-43.45703125,23.92578125,82.51953125,-43.45703125
425,-38.0859375,-9.27734375,24.4140625,-40.0390625
426,-41.50390625,26.85546875,51.7578125,-43.45703125
427,-41.9921875,44.921875,110.3515625,-43.45703125
428,-36.62109375,9.27734375,152.34375,-48.828125
429,-41.50390625,-63.4765625,104.00390625,-52.24609375
430,-39.0625,-162.109375,-56.640625,-36.62109375
431,-22.94921875,-86.42578125,89.35546875,-19.04296875
432,-29.296875,-49.8046875,276.85546875,-32.71484375
433,-35.64453125,-179.19921875,105.46875,-37.59765625
434,-35.15625,-190.91796875,78.125,-29.296875
435,-42.48046875,-168.9453125,175.78125,-34.1796875
436,-49.31640625,-221.19140625,150.390625,-41.9921875
437,-48.828125,-322.75390625,11.71875,-30.2734375
438,-42.96875,-259.27734375,72.75390625,-27.83203125
439,-51.26953125,-191.89453125,251.46484375,-41.015625
440,-42.96875,-301.7578125,152.34375,-38.57421875
441,-24.90234375,-347.65625,43.45703125,-22.94921875
442,-26.3671875,-308.59375,123.046875,-20.01953125
443,-28.80859375,-272.94921875,216.796875,-31.73828125
444,-35.15625,-335.9375,122.55859375,-38.0859375
445,-42.48046875,-313.4765625,122.55859375,-36.1328125
446,-46.38671875,-279.296875,183.59375,-40.0390625
447,-56.15234375,-317.3828125,155.2734375,-44.43359375
448,-52.734375,-348.6328125,97.16796875,-42.96875
449,-43.45703125,-333.49609375,68.359375,-44.921875
450,-45.41015625,-269.04296875,161.1328125,-42.96875
451,-43.45703125,-266.6015625,205.078125,-39.55078125
452,-52.24609375,-333.49609375,83.0078125,-44.43359375
453,-65.91796875,-298.33984375,43.45703125,-49.8046875
454,-57.12890625,-221.6796875,141.6015625,-44.43359375
455,-44.921875,-246.09375,162.109375,-47.36328125
456,-46.875,-125.48828125,2.9296875,-44.43359375
457,-49.8046875,-53.7109375,68.359375,-58.10546875
458,-53.22265625,-20.99609375,151.85546875,-68.84765625
459,-56.640625,-75.1953125,77.1484375,-67.3828125
460,-49.8046875,-94.23828125,-8.30078125,-54.6875
461,-53.7109375,-35.64453125,50.29296875,-62.98828125
462,-65.91796875,-3.90625,146.484375,-67.3828125
463,-61.5234375,-49.31640625,119.140625,-61.03515625
464,-63.4765625,-90.33203125,-0.9765625,-57.6171875
465,-66.89453125,7.8125,139.6484375,-58.10546875
466,-51.26953125,-20.01953125,206.0546875,-66.89453125
467,-39.55078125,-94.23828125,82.51953125,-75.1953125
468,-53.7109375,-65.4296875,117.1875,-70.80078125
469,-58.10546875,-48.33984375,167.48046875,-62.98828125
470,-58.59375,-62.5,167.96875,-61.03515625
471,-58.59375,-123.53515625,91.796875,-59.5703125
472,-57.12890625,-140.13671875,90.33203125,-58.10546875
473,-53.7109375,-98.14453125,154.296875,-52.24609375
474,-59.08203125,-56.640625,208.49609375,-50.29296875
475,-57.12890625,-156.73828125,99.609375,-54.19921875
476,-52.24609375,-125.9765625,77.1484375,-57.6171875
477,-61.03515625,0.9765625,312.5,-64.94140625
478,-61.03515625,-123.53515625,229.00390625,-54.19921875
479,-53.7109375,-142.578125,133.7890625,-43.9453125
480,-53.7109375,-82.03125,208.0078125,-41.015625
481,-52.24609375,-96.6796875,242.67578125,-49.8046875
482,-50.29296875,-143.5546875,177.24609375,-60.05859375
483,-54.19921875,-105.95703125,204.1015625,-50.29296875
484,-59.08203125,-97.16796875,246.58203125,-49.8046875
485,-56.640625,-151.3671875,186.03515625,-53.7109375
486,-54.6875,-116.2109375,219.7265625,-53.22265625
487,-58.10546875,-163.57421875,135.25390625,-54.19921875
488,-48.828125,-97.65625,236.81640625,-45.41015625
489,-35.64453125,-28.80859375,416.9921875,-42.96875
490,-41.015625,-134.27734375,245.1171875,-36.62109375
491,-42.48046875,-114.74609375,217.7734375,-30.2734375
492,-40.0390625,-71.77734375,281.25,-37.109375
493,-35.15625,-83.984375,244.140625,-46.38671875
494,-39.0625,-119.140625,151.85546875,-50.78125
495,-42.48046875,-83.0078125,175.78125,-47.8515625
496,-38.0859375,-62.01171875,213.8671875,-42.96875
497,-37.59765625,-85.44921875,130.859375,-43.45703125
498,-35.64453125,-104.00390625,77.63671875,-44.921875
499,-42.48046875,-76.171875,86.9140625,-39.55078125
500,-41.9921875,25.390625,200.1953125,-39.55078125
501,-34.1796875,-2.44140625,197.265625,-40.0390625
502,-41.50390625,-60.546875,66.89453125,-39.0625
503,-41.015625,-9.27734375,77.1484375,-38.57421875
504,-20.01953125,19.04296875,169.43359375,-37.59765625
505,-16.6015625,-24.90234375,117.1875,-47.8515625
506,-23.92578125,-85.9375,-29.78515625,-59.5703125
507,-28.80859375,5.37109375,69.82421875,-63.4765625
508,-21.97265625,16.6015625,153.80859375,-51.26953125
509,-15.625,-42.96875,48.828125,-44.921875
510,-18.06640625,-38.57421875,5.37109375,-36.1328125
511,-22.4609375,17.578125,100.5859375,-32.2265625
512,-28.80859375,34.1796875,187.98828125,-46.875
513,-32.71484375,-43.9453125,49.31640625,-42.48046875
514,-44.921875,-42.48046875,31.25,-32.71484375
515,-44.43359375,3.90625,116.69921875,-23.4375
516,-36.1328125,14.16015625,141.11328125,-19.04296875
517,-37.109375,-53.22265625,49.8046875,-25.87890625
518,-38.0859375,-26.85546875,80.078125,-27.83203125
519,-41.50390625,51.26953125,216.30859375,-21.484375
520,-39.0625,4.8828125,179.6875,-20.5078125
521,-37.59765625,-91.796875,51.7578125,-29.296875
522,-32.2265625,-14.16015625,124.51171875,-27.83203125
523,-28.3203125,103.515625,346.19140625,-38.57421875
524,-30.2734375,-1.46484375,279.78515625,-47.36328125
525,-29.296875,-27.83203125,186.03515625,-38.57421875
526,-28.80859375,12.6953125,249.51171875,-31.25
527,-42.48046875,16.11328125,312.98828125,-27.34375
528,-49.8046875,-29.78515625,256.8359375,-31.25
529,-35.64453125,-28.3203125,211.42578125,-29.296875
530,-38.0859375,34.66796875,320.80078125,-27.83203125
531,-44.921875,12.6953125,348.14453125,-29.78515625
532,-47.36328125,-24.90234375,291.9921875,-41.50390625
533,-56.15234375,-67.87109375,165.52734375,-53.7109375
534,-55.17578125,27.34375,277.34375,-50.29296875
535,-57.12890625,50.29296875,420.41015625,-53.7109375
536,-56.640625,-50.29296875,271.484375,-52.734375
537,-54.19921875,-43.45703125,184.08203125,-43.45703125
538,-55.6640625,50.78125,327.1484375,-43.9453125
539,-52.734375,24.4140625,389.16015625,-55.17578125
540,-55.17578125,-53.7109375,243.65234375,-52.24609375
541,-54.6875,-39.0625,249.51171875,-49.31640625
542,-43.9453125,16.11328125,364.74609375,-47.8515625
543,-45.41015625,-10.25390625,322.265625,-49.31640625
544,-57.12890625,-62.01171875,267.08984375,-54.6875
545,-61.03515625,-33.203125,287.109375,-43.9453125
546,-60.546875,70.80078125,442.3828125,-47.36328125
547,-48.828125,29.296875,448.2421875,-50.29296875
548,-44.921875,-72.265625,271.484375,-41.015625
549,-57.12890625,-37.109375,291.9921875,-34.66796875
550,-58.10546875,38.57421875,421.875,-33.69140625
551,-42.96875,-20.01953125,334.47265625,-34.1796875
552,-43.9453125,-16.6015625,281.25,-40.52734375
553,-43.9453125,28.3203125,336.9140625,-39.0625
554,-34.1796875,7.8125,329.58984375,-30.76171875
555,-42.96875,-16.6015625,272.4609375,-36.62109375
556,-53.7109375,-16.6015625,243.1640625,-53.7109375
557,-40.0390625,15.625,268.5546875,-51.7578125
558,-48.33984375,24.4140625,289.0625,-39.55078125
559,-50.29296875,17.08984375,286.62109375,-28.3203125
560,-32.71484375,-28.3203125,152.83203125,-23.4375
561,-30.2734375,51.26953125,244.62890625,-16.11328125
562,-31.25,114.2578125,444.82421875,-15.625
563,-28.80859375,19.53125,251.953125,-22.4609375
564,-20.01953125,36.62109375,187.01171875,-13.18359375
565,-15.13671875,83.984375,250.0,-10.25390625
566,-17.578125,64.453125,199.21875,-16.6015625
567,-20.5078125,31.73828125,83.984375,-22.4609375
568,-25.87890625,41.9921875,47.36328125,-36.1328125
569,-25.87890625,67.3828125,33.69140625,-37.59765625
570,-13.671875,116.2109375,58.59375,-29.78515625
571,-15.625,28.80859375,-92.7734375,-24.4140625
572,-21.97265625,57.6171875,-179.19921875,-20.99609375
573,-28.80859375,201.171875,20.01953125,-28.80859375
574,-35.64453125,95.703125,-99.12109375,-22.94921875
575,-27.83203125,17.578125,-344.23828125,-13.18359375
576,-25.87890625,108.88671875,-297.36328125,-22.4609375
577,-38.0859375,149.90234375,-173.828125,-35.64453125
578,-37.59765625,83.0078125,-291.015625,-33.203125
579,-32.2265625,108.88671875,-349.609375,-32.2265625
580,-39.55078125,108.88671875,-339.84375,-34.1796875
581,-40.0390625,83.984375,-383.7890625,-35.15625
582,-22.4609375,104.98046875,-356.93359375,-33.69140625
583,-24.4140625,120.1171875,-355.46875,-28.3203125
584,-35.15625,166.9921875,-273.4375,-27.34375
585,-38.57421875,125.9765625,-257.32421875,-23.4375
586,-49.8046875,48.33984375,-378.41796875,-29.296875
587,-54.19921875,59.5703125,-445.80078125,-32.2265625
588,-54.6875,176.7578125,-265.625,-37.109375
589,-56.15234375,136.71875,-213.8671875,-40.52734375
590,-60.546875,55.6640625,-377.9296875,-38.57421875
591,-52.734375,73.73046875,-352.05078125,-40.0390625
592,-46.875,71.2890625,-315.4296875,-39.55078125
593,-49.8046875,42.96875,-376.953125,-40.0390625
594,-49.8046875,18.06640625,-405.76171875,-40.0390625
595,-56.640625,67.3828125,-345.21484375,-32.71484375
596,-53.22265625,166.015625,-153.80859375,-31.25
597,-51.7578125,78.61328125,-216.796875,-40.52734375
598,-51.7578125,76.171875,-299.31640625,-49.31640625
599,-41.50390625,147.4609375,-213.8671875,-39.0625
600,-38.0859375,146.484375,-147.94921875,-33.69140625
601,-33.69140625,106.93359375,-226.07421875,-34.66796875
602,-31.25,141.6015625,-248.53515625,-32.71484375
603,-40.0390625,195.3125,-138.18359375,-33.203125
604,-41.015625,118.65234375,-181.15234375,-29.78515625
605,-42.48046875,84.9609375,-294.43359375,-30.2734375
606,-51.26953125,171.38671875,-232.421875,-35.64453125
607,-38.57421875,185.546875,-172.8515625,-36.1328125
608,-26.3671875,149.4140625,-207.03125,-40.0390625
609,-30.76171875,119.62890625,-272.94921875,-43.9453125
610,-35.15625,44.921875,-477.05078125,-38.57421875
611,-34.1796875,156.73828125,-312.01171875,-27.83203125
612,-33.203125,207.03125,-96.6796875,-31.25
613,-35.15625,93.75,-290.52734375,-37.109375
614,-28.80859375,101.07421875,-291.015625,-33.203125
615,-25.390625,115.72265625,-255.859375,-32.71484375
616,-32.71484375,114.2578125,-263.18359375,-40.0390625
617,-34.1796875,48.828125,-308.59375,-35.15625
618,-32.71484375,44.43359375,-379.8828125,-17.08984375
619,-28.80859375,209.9609375,-119.62890625,-21.97265625
620,-18.06640625,153.80859375,-51.26953125,-38.0859375
621,-24.90234375,41.015625,-274.4140625,-37.59765625
622,-29.296875,97.16796875,-225.5859375,-29.78515625
623,-27.34375,133.7890625,-89.84375,-40.0390625
624,-27.83203125,72.75390625,-154.296875,-44.43359375
625,-25.390625,73.73046875,-189.453125,-35.15625
626,-31.73828125,99.12109375,-151.3671875,-32.71484375
627,-33.203125,84.9609375,-139.6484375,-35.64453125
628,-28.3203125,37.59765625,-212.890625,-38.0859375
629,-25.87890625,48.828125,-287.59765625,-36.62109375
630,-19.04296875,103.02734375,-217.28515625,-24.90234375
631,-19.04296875,85.44921875,-182.12890625,-20.01953125
632,-26.3671875,50.29296875,-212.40234375,-27.83203125
633,-34.66796875,-0.9765625,-364.74609375,-32.2265625
634,-32.71484375,84.47265625,-270.01953125,-35.64453125
635,-18.06640625,62.5,-184.5703125,-28.3203125
636,-19.04296875,-22.94921875,-378.90625,-23.92578125
637,-27.34375,-0.9765625,-395.99609375,-29.78515625
638,-21.97265625,18.5546875,-347.65625,-30.2734375
639,-20.5078125,-10.25390625,-401.85546875,-33.203125
640,-18.5546875,-59.5703125,-486.81640625,-30.2734375
641,-20.01953125,-75.1953125,-563.96484375,-30.76171875
642,-31.25,-20.01953125,-472.65625,-38.0859375
643,-21.97265625,-29.296875,-451.66015625,-35.15625
644,-17.578125,-157.71484375,-664.55078125,-25.390625
646,-28.3203125,37.59765625,-456.0546875,-27.83203125
647,-28.80859375,-86.42578125,-521.484375,-26.85546875
648,-25.87890625,-124.51171875,-704.1015625,-26.85546875
649,-27.83203125,-67.87109375,-649.4140625,-33.69140625
650,-26.85546875,-92.28515625,-635.25390625,-31.25
651,-28.80859375,-123.046875,-711.42578125,-33.203125
654,-49.31640625,-71.77734375,-714.35546875,-35.15625
655,-15.625,-86.42578125,-690.91796875,-16.11328125
657,-72.75390625,-29.296875,-714.35546875,-41.50390625
658,-99.609375,-42.48046875,-585.9375,-80.56640625
660,-72.75390625,-28.80859375,-659.66796875,-58.59375
661,-91.30859375,17.578125,-515.625,-63.4765625
662,-86.42578125,-16.6015625,-526.85546875,-58.59375
663,-85.44921875,-40.0390625,-587.890625,-62.98828125
664,-92.28515625,-34.1796875,-550.29296875,-69.82421875
665,-96.19140625,-11.71875,-486.81640625,-76.66015625
666,-92.28515625,45.41015625,-360.83984375,-75.1953125
667,-95.703125,-29.296875,-424.8046875,-75.1953125
668,-96.6796875,10.25390625,-415.0390625,-76.66015625
669,-97.16796875,136.71875,-143.06640625,-70.80078125
670,-100.5859375,52.734375,-196.2890625,-72.265625
671,-88.8671875,54.6875,-278.3203125,-73.2421875
672,-78.125,102.5390625,-192.87109375,-65.4296875
673,-77.63671875,94.23828125,-155.76171875,-68.84765625
674,-84.9609375,74.70703125,-164.0625,-78.61328125
675,-82.51953125,83.984375,-173.828125,-71.2890625
676,-73.2421875,128.90625,-107.421875,-57.6171875
677,-67.3828125,101.07421875,-83.49609375,-58.59375
678,-74.70703125,106.4453125,-81.54296875,-68.359375
679,-80.078125,72.265625,-163.0859375,-73.2421875
680,-72.265625,137.6953125,-42.96875,-76.171875
681,-74.70703125,145.5078125,104.00390625,-76.171875
682,-80.078125,54.19921875,-75.1953125,-63.4765625
683,-73.2421875,80.078125,-80.078125,-62.98828125
684,-62.01171875,133.30078125,37.109375,-62.5
685,-61.5234375,115.234375,28.3203125,-52.24609375
686,-65.4296875,65.4296875,-59.5703125,-50.29296875
687,-61.5234375,57.6171875,-71.2890625,-52.24609375
688,-65.91796875,86.9140625,-3.90625,-57.6171875
689,-69.3359375,86.9140625,0.9765625,-53.22265625
690,-68.84765625,43.9453125,-76.171875,-56.15234375
691,-76.171875,58.10546875,-41.50390625,-65.91796875
692,-80.56640625,96.6796875,51.26953125,-60.05859375
693,-75.68359375,82.03125,37.109375,-58.59375
694,-62.98828125,-36.62109375,-159.66796875,-54.6875
695,-65.91796875,13.18359375,-195.3125,-48.828125
696,-66.89453125,173.33984375,118.65234375,-51.26953125
697,-41.50390625,47.36328125,43.45703125,-52.24609375
698,-46.38671875,28.3203125,-83.984375,-52.24609375
699,-60.546875,85.44921875,-2.9296875,-58.10546875
700,-60.546875,28.3203125,-32.2265625,-60.05859375
701,-62.01171875,12.20703125,-88.8671875,-62.98828125
702,-58.10546875,-7.8125,-166.015625,-57.12890625
703,-62.98828125,35.64453125,-70.3125,-47.36328125
704,-59.5703125,103.515625,154.296875,-54.6875
705,-54.6875,-4.39453125,-27.34375,-60.546875
706,-54.6875,-11.23046875,-93.26171875,-60.546875
707,-50.29296875,22.94921875,-9.765625,-52.24609375
708,-51.7578125,-7.8125,-36.62109375,-51.7578125
709,-58.59375,-60.546875,-117.1875,-57.12890625
710,-73.2421875,-55.17578125,-117.1875,-59.5703125
711,-75.1953125,-11.23046875,-30.76171875,-58.59375
712,-64.94140625,-34.1796875,-49.31640625,-53.22265625
713,-61.5234375,-116.69921875,-200.1953125,-51.7578125
714,-59.08203125,-37.109375,-139.6484375,-51.7578125
715,-54.6875,70.3125,89.84375,-43.9453125
716,-59.08203125,-29.78515625,-15.625,-44.921875
717,-63.96484375,-91.30859375,-171.875,-44.921875
718,-51.26953125,-20.99609375,-70.3125,-29.78515625
719,-54.6875,44.43359375,69.82421875,-35.64453125
720,-64.453125,-6.8359375,-20.01953125,-44.921875
721,-60.05859375,2.9296875,-82.03125,-37.109375
722,-43.9453125,48.33984375,-17.08984375,-35.15625
723,-38.57421875,44.43359375,24.90234375,-40.0390625
724,-55.17578125,4.39453125,-49.31640625,-39.0625
725,-54.6875,20.01953125,-117.1875,-38.0859375
726,-48.828125,79.1015625,-39.55078125,-41.015625
727,-49.8046875,77.1484375,17.08984375,-49.8046875
728,-49.31640625,27.83203125,-83.984375,-57.6171875
729,-45.41015625,47.8515625,-189.453125,-54.6875
730,-40.0390625,115.72265625,-94.7265625,-46.875
731,-38.0859375,84.47265625,-67.87109375,-42.48046875
732,-37.59765625,59.08203125,-158.69140625,-34.66796875
733,-45.8984375,60.546875,-195.3125,-32.71484375
734,-59.08203125,110.3515625,-140.13671875,-34.66796875
735,-57.6171875,81.0546875,-196.77734375,-41.50390625
736,-58.59375,40.52734375,-311.03515625,-54.6875
737,-69.3359375,29.78515625,-379.8828125,-44.43359375
738,-69.3359375,87.40234375,-333.49609375,-44.43359375
739,-56.15234375,110.3515625,-274.90234375,-53.22265625
740,-56.640625,-7.32421875,-468.75,-56.640625
741,-61.5234375,26.3671875,-521.97265625,-52.24609375
742,-56.640625,139.6484375,-329.58984375,-53.22265625
743,-46.38671875,45.41015625,-445.3125,-54.19921875
744,-41.015625,10.25390625,-612.3046875,-48.33984375
745,-48.33984375,64.94140625,-601.07421875,-51.7578125
746,-49.31640625,66.89453125,-539.0625,-45.8984375
747,-39.55078125,15.13671875,-617.67578125,-48.33984375
750,-47.8515625,63.4765625,-659.1796875,-52.734375
751,-44.921875,24.4140625,-690.91796875,-48.33984375
754,-43.9453125,30.2734375,-674.8046875,-40.52734375
772,-59.5703125,-36.62109375,-702.63671875,-42.48046875
774,-58.59375,-70.3125,-707.51953125,-52.24609375
775,-61.5234375,-34.1796875,-664.0625,-53.7109375
776,-64.94140625,16.11328125,-545.8984375,-51.26953125
777,-58.10546875,-18.06640625,-506.8359375,-50.78125
778,-49.8046875,-61.03515625,-555.6640625,-54.6875
779,-48.828125,-99.609375,-644.04296875,-46.875
780,-41.015625,-6.34765625,-482.421875,-32.2265625
781,-41.015625,15.13671875,-311.03515625,-40.52734375
782,-45.41015625,-88.8671875,-481.93359375,-39.0625
783,-41.9921875,-58.10546875,-454.58984375,-29.296875
784,-41.50390625,-20.99609375,-337.40234375,-30.2734375
785,-40.0390625,-56.15234375,-375.48828125,-38.0859375
786,-36.62109375,-86.42578125,-423.828125,-40.52734375
787,-43.45703125,-49.31640625,-368.1640625,-33.203125
788,-35.15625,9.27734375,-217.7734375,-28.3203125
789,-29.78515625,-16.11328125,-221.6796875,-29.296875
790,-40.52734375,-66.89453125,-306.15234375,-23.4375
791,-38.0859375,-47.8515625,-269.04296875,-16.11328125
792,-38.57421875,12.20703125,-131.34765625,-22.4609375
793,-39.0625,-51.7578125,-215.8203125,-34.66796875
794,-37.59765625,-43.9453125,-241.2109375,-26.85546875
795,-37.109375,3.41796875,-145.01953125,-15.13671875
796,-35.15625,-42.96875,-148.92578125,-23.92578125
797,-36.62109375,-81.0546875,-213.37890625,-27.34375
798,-39.0625,-79.1015625,-270.01953125,-26.3671875
799,-51.7578125,-6.8359375,-140.13671875,-29.296875
800,-51.26953125,19.04296875,32.2265625,-27.34375
801,-37.59765625,-71.2890625,-106.93359375,-20.01953125
802,-36.62109375,-69.82421875,-113.28125,-16.11328125
803,-47.36328125,-36.1328125,-34.66796875,-14.6484375
804,-47.8515625,-14.16015625,20.99609375,-15.13671875
805,-52.734375,-69.3359375,-29.78515625,-17.08984375
806,-59.08203125,-65.4296875,-59.5703125,-19.53125
807,-47.36328125,6.8359375,87.40234375,-26.85546875
808,-40.52734375,-24.90234375,106.4453125,-26.85546875
809,-45.41015625,-109.86328125,-22.94921875,-28.80859375
810,-50.29296875,-45.41015625,12.20703125,-28.3203125
811,-54.6875,67.87109375,240.72265625,-35.64453125
812,-56.640625,-15.13671875,212.40234375,-50.78125
813,-48.828125,-47.36328125,110.3515625,-47.8515625
814,-51.7578125,-1.46484375,168.9453125,-38.0859375
815,-59.08203125,5.859375,242.67578125,-38.0859375
816,-54.19921875,-28.80859375,186.5234375,-40.52734375
817,-56.640625,-39.55078125,125.9765625,-36.62109375
818,-60.546875,15.625,208.0078125,-41.50390625
819,-59.5703125,31.73828125,286.1328125,-56.640625
820,-60.05859375,-3.90625,240.234375,-57.6171875
821,-50.29296875,-63.4765625,64.94140625,-44.921875
822,-36.1328125,37.109375,194.82421875,-37.109375
823,-52.734375,91.30859375,390.625,-42.48046875
824,-63.96484375,2.9296875,215.8203125,-46.38671875
825,-56.640625,27.83203125,178.22265625,-43.45703125
826,-54.19921875,66.40625,246.09375,-43.9453125
827,-51.7578125,37.109375,196.77734375,-41.50390625
828,-45.41015625,-3.41796875,101.5625,-35.64453125
829,-48.33984375,-0.48828125,76.171875,-45.41015625
830,-52.24609375,45.41015625,126.46484375,-46.875
831,-55.6640625,28.3203125,81.0546875,-48.33984375
832,-57.12890625,-44.43359375,-44.921875,-55.17578125
833,-53.7109375,-4.8828125,-65.4296875,-49.8046875
834,-58.10546875,104.00390625,117.1875,-42.96875
835,-55.17578125,51.7578125,110.83984375,-44.921875
836,-45.41015625,-47.8515625,-123.53515625,-34.1796875
837,-44.43359375,-6.8359375,-120.1171875,-22.94921875
838,-41.50390625,64.453125,16.11328125,-27.34375
839,-38.57421875,12.6953125,-70.80078125,-31.25
840,-36.1328125,-1.953125,-153.80859375,-34.1796875
841,-36.1328125,30.76171875,-101.5625,-40.0390625
842,-42.48046875,32.2265625,-40.0390625,-38.57421875
843,-42.96875,-4.39453125,-78.61328125,-28.80859375
844,-45.41015625,-23.92578125,-151.3671875,-27.34375
845,-51.26953125,11.23046875,-97.65625,-29.296875
846,-47.36328125,12.6953125,-0.48828125,-26.85546875
847,-35.64453125,9.765625,24.90234375,-25.87890625
848,-31.25,-49.8046875,-115.234375,-21.484375
849,-42.48046875,10.7421875,8.30078125,-25.87890625
850,-41.015625,68.359375,229.00390625,-37.59765625
851,-37.59765625,-28.3203125,44.43359375,-41.015625
852,-39.55078125,-23.92578125,14.16015625,-34.66796875
853,-40.52734375,0.9765625,70.3125,-29.78515625
854,-45.8984375,-15.625,42.48046875,-33.69140625
855,-41.50390625,-55.6640625,-34.66796875,-26.3671875
856,-34.1796875,-74.70703125,-66.89453125,-22.94921875
857,-32.71484375,-71.77734375,-67.87109375,-26.85546875
858,-34.66796875,-37.109375,-23.92578125,-30.2734375
859,-33.69140625,-117.67578125,-129.39453125,-36.1328125
860,-43.9453125,-151.3671875,-250.48828125,-27.34375
861,-41.015625,-41.50390625,-51.7578125,-19.04296875
862,-30.2734375,-94.23828125,-27.34375,-21.484375
863,-29.296875,-208.984375,-256.8359375,-23.92578125
864,-35.64453125,-180.6640625,-239.2578125,-35.15625
865,-47.8515625,-157.71484375,-85.44921875,-46.875
866,-45.8984375,-239.74609375,-161.62109375,-39.0625
867,-39.55078125,-234.375,-184.5703125,-36.62109375
868,-31.73828125,-237.3046875,-145.99609375,-41.015625
869,-30.76171875,-303.7109375,-187.98828125,-41.9921875
870,-38.0859375,-306.640625,-171.875,-37.109375
871,-39.0625,-289.55078125,-147.94921875,-32.71484375
872,-46.38671875,-266.6015625,-39.0625,-34.1796875
873,-42.48046875,-316.89453125,38.57421875,-32.71484375
874,-43.45703125,-398.4375,-47.8515625,-32.2265625
875,-44.43359375,-382.8125,-50.29296875,-34.66796875
876,-37.59765625,-314.94140625,140.625,-39.0625
877,-43.45703125,-349.609375,238.28125,-44.921875
878,-35.15625,-418.45703125,127.44140625,-41.9921875
879,-32.2265625,-405.2734375,156.73828125,-34.66796875
880,-41.50390625,-370.1171875,302.734375,-38.57421875
881,-39.55078125,-395.01953125,273.92578125,-41.015625
882,-34.1796875,-441.89453125,230.46875,-28.80859375
883,-30.76171875,-454.1015625,170.41015625,-27.34375
884,-31.25,-310.546875,411.62109375,-41.50390625
885,-27.83203125,-369.140625,473.6328125,-43.45703125
886,-30.76171875,-427.24609375,291.9921875,-41.50390625
887,-38.0859375,-391.6015625,301.26953125,-43.45703125
888,-32.2265625,-380.859375,354.98046875,-42.48046875
889,-19.53125,-412.59765625,284.1796875,-45.8984375
890,-20.99609375,-427.24609375,138.671875,-41.015625
891,-34.66796875,-315.91796875,246.09375,-39.55078125
892,-41.50390625,-312.98828125,321.77734375,-41.9921875
893,-34.1796875,-333.0078125,199.21875,-35.64453125
894,-24.90234375,-312.01171875,81.0546875,-33.203125
895,-24.4140625,-221.19140625,183.59375,-29.78515625
896,-21.97265625,-162.59765625,327.63671875,-25.390625
897,-17.08984375,-208.49609375,164.55078125,-30.2734375
898,-22.4609375,-196.77734375,81.0546875,-31.73828125
899,-22.4609375,-153.80859375,118.65234375,-25.390625
900,-19.04296875,-132.8125,114.74609375,-27.34375
901,-16.6015625,-156.73828125,-1.46484375,-33.203125
902,-19.53125,-116.2109375,-10.25390625,-29.78515625
903,-23.4375,-83.0078125,5.859375,-22.94921875
904,-23.92578125,-97.65625,-110.3515625,-26.3671875
905,-30.2734375,-113.28125,-176.7578125,-31.25
906,-31.73828125,-107.421875,-267.578125,-21.484375
907,-27.34375,34.66796875,-67.3828125,-19.53125
908,-20.99609375,-9.27734375,-34.1796875,-31.25
909,-20.5078125,-66.40625,-208.984375,-40.0390625
910,-22.4609375,-15.13671875,-156.73828125,-43.45703125
911,-28.3203125,-8.30078125,-104.00390625,-34.1796875
912,-33.69140625,-45.41015625,-148.4375,-29.296875
913,-34.1796875,-46.875,-186.03515625,-26.3671875
914,-28.3203125,-5.37109375,-97.65625,-26.3671875
915,-26.85546875,-19.04296875,-12.6953125,-34.1796875
916,-36.62109375,-85.44921875,-83.49609375,-45.8984375
917,-39.55078125,-114.74609375,-179.6875,-53.7109375
918,-36.1328125,-71.77734375,-78.61328125,-54.19921875
919,-34.66796875,-65.91796875,68.359375,-50.78125
920,-24.90234375,-125.9765625,48.828125,-34.66796875
921,-20.99609375,-201.171875,-162.59765625,-20.99609375
922,-27.34375,-126.953125,-41.015625,-24.4140625
923,-27.83203125,-132.8125,122.55859375,-39.55078125
924,-32.71484375,-234.86328125,-39.55078125,-41.9921875
925,-39.55078125,-259.765625,-78.125,-30.76171875
926,-33.69140625,-240.234375,-14.6484375,-28.80859375
927,-29.78515625,-260.25390625,-41.015625,-33.203125
928,-31.73828125,-306.15234375,-116.69921875,-29.78515625
929,-46.38671875,-314.453125,-155.76171875,-32.2265625
930,-56.640625,-252.44140625,-47.8515625,-40.52734375
931,-45.41015625,-227.05078125,33.69140625,-38.57421875
932,-42.96875,-338.37890625,-150.87890625,-33.69140625
933,-50.29296875,-320.3125,-228.02734375,-26.85546875
934,-45.41015625,-168.45703125,82.51953125,-33.69140625
935,-40.52734375,-279.296875,63.96484375,-39.55078125
936,-46.875,-322.265625,-82.03125,-34.66796875
937,-46.875,-281.73828125,-11.23046875,-44.43359375
938,-46.38671875,-313.96484375,0.48828125,-43.9453125
939,-52.734375,-341.30859375,-35.64453125,-42.48046875
940,-60.05859375,-353.515625,-74.21875,-45.8984375
941,-46.875,-340.8203125,-68.359375,-33.203125
942,-44.43359375,-289.0625,36.1328125,-30.76171875
943,-52.24609375,-299.31640625,44.43359375,-40.52734375
944,-38.0859375,-345.703125,-135.25390625,-34.1796875
945,-44.921875,-225.5859375,-0.9765625,-32.2265625
946,-47.8515625,-201.66015625,138.671875,-36.1328125
947,-52.24609375,-293.45703125,-60.05859375,-36.62109375
948,-57.12890625,-243.65234375,-53.7109375,-40.0390625
949,-54.19921875,-189.94140625,72.265625,-33.69140625
950,-51.7578125,-245.60546875,32.71484375,-28.3203125
951,-47.36328125,-286.1328125,-64.453125,-28.80859375
952,-41.015625,-286.1328125,-82.03125,-34.1796875
953,-28.80859375,-264.6484375,-45.41015625,-44.43359375
954,-21.97265625,-238.28125,-23.92578125,-45.8984375
955,-14.6484375,-310.05859375,-106.4453125,-41.015625
956,-26.85546875,-280.76171875,-110.3515625,-43.9453125
957,-33.69140625,-179.6875,82.51953125,-47.36328125
958,-19.53125,-280.2734375,-0.9765625,-34.1796875
959,-24.4140625,-312.98828125,-124.51171875,-24.4140625
960,-31.73828125,-273.92578125,-77.63671875,-30.76171875
961,-39.55078125,-311.03515625,-74.70703125,-28.3203125
962,-40.52734375,-356.93359375,-146.484375,-25.87890625
963,-41.9921875,-337.890625,-162.59765625,-30.76171875
964,-48.33984375,-301.7578125,-71.2890625,-37.59765625
965,-47.36328125,-360.83984375,-77.1484375,-35.15625
966,-49.31640625,-362.79296875,-86.9140625,-38.57421875
967,-49.8046875,-379.8828125,-143.5546875,-46.875
968,-49.8046875,-345.703125,-72.265625,-45.41015625
969,-49.8046875,-324.70703125,75.1953125,-52.24609375
970,-50.29296875,-392.578125,-52.734375,-53.7109375
971,-46.38671875,-366.69921875,-50.29296875,-56.640625
972,-44.921875,-321.2890625,17.578125,-54.19921875
973,-48.828125,-311.5234375,1.46484375,-52.734375
974,-46.875,-324.70703125,-57.6171875,-57.6171875
975,-45.8984375,-286.1328125,-34.1796875,-53.22265625
976,-42.48046875,-241.69921875,0.0,-42.48046875
977,-34.1796875,-232.91015625,-38.0859375,-36.62109375
978,-23.92578125,-241.2109375,-58.10546875,-32.71484375
979,-27.83203125,-205.56640625,1.953125,-37.109375
980,-34.1796875,-140.625,78.125,-43.9453125
981,-41.9921875,-130.37109375,61.03515625,-41.9921875
982,-38.0859375,-219.7265625,-83.0078125,-34.1796875
983,-29.78515625,-156.73828125,-101.07421875,-24.4140625
984,-34.66796875,5.37109375,187.98828125,-28.3203125
985,-35.15625,-105.46875,111.81640625,-30.76171875
986,-31.25,-115.234375,-0.48828125,-34.66796875
987,-39.55078125,-59.08203125,61.03515625,-42.48046875
988,-47.36328125,-102.5390625,33.203125,-45.8984375
989,-52.734375,-123.53515625,-38.0859375,-51.7578125
990,-55.6640625,-154.296875,-175.29296875,-42.96875
991,-50.78125,-66.40625,-62.98828125,-35.15625
992,-55.17578125,9.765625,145.99609375,-43.9453125
993,-51.7578125,-104.00390625,-31.25,-45.8984375
994,-61.03515625,-99.12109375,-80.56640625,-52.734375
995,-63.96484375,-69.3359375,-16.6015625,-52.24609375
996,-41.015625,-87.890625,-38.57421875,-38.0859375
997,-42.48046875,-134.27734375,-135.7421875,-33.203125
998,-51.7578125,-122.0703125,-120.60546875,-45.41015625
999,-53.22265625,-79.1015625,-50.29296875,-51.7578125
1000,-46.38671875,-97.16796875,-86.42578125,-42.96875
1001,-37.109375,-165.52734375,-190.4296875,-36.1328125
1002,-37.59765625,-96.19140625,-159.1796875,-29.296875
1003,-32.71484375,19.53125,47.8515625,-35.64453125
1004,-30.76171875,-75.68359375,-22.94921875,-43.9453125
1005,-27.83203125,-166.015625,-203.61328125,-29.296875
1006,-23.92578125,-144.53125,-173.828125,-19.04296875
1007,-21.97265625,-70.3125,-11.23046875,-16.6015625
1008,-14.6484375,-104.4921875,-37.59765625,-17.578125
1009,-16.6015625,-125.9765625,-104.00390625,-26.85546875
1010,-16.6015625,-88.37890625,-22.94921875,-23.4375
1011,-23.92578125,-104.00390625,17.578125,-24.4140625
1012,-20.99609375,-143.5546875,-27.83203125,-31.25
1013,-4.39453125,-155.2734375,-101.07421875,-23.4375
1014,-12.20703125,-72.265625,32.2265625,-15.625
1015,-10.7421875,-71.77734375,148.92578125,-14.16015625
1016,-16.11328125,-148.4375,49.31640625,-21.97265625
1017,-29.78515625,-123.046875,21.484375,-30.2734375
1018,-28.80859375,-70.3125,148.92578125,-33.203125
1019,-28.3203125,-145.99609375,125.48828125,-27.83203125
1020,-21.97265625,-192.87109375,45.41015625,-23.92578125
1021,-20.99609375,-162.59765625,108.88671875,-23.92578125
1022,-23.4375,-145.5078125,194.82421875,-15.13671875
1023,-30.2734375,-203.61328125,141.11328125,-21.97265625
1024,-31.25,-263.18359375,43.45703125,-28.80859375
1025,-13.671875,-269.53125,2.44140625,-15.625
1026,-3.90625,-199.21875,101.07421875,-3.41796875
1027,-3.90625,-194.3359375,161.62109375,1.953125
1028,-6.34765625,-312.01171875,-29.78515625,8.30078125
1029,-5.37109375,-254.39453125,-43.9453125,14.6484375
1030,-1.46484375,-129.39453125,156.73828125,6.34765625
1031,-8.30078125,-217.28515625,66.40625,-1.46484375
1032,-10.25390625,-215.8203125,-28.3203125,-2.9296875
1033,-6.8359375,-188.96484375,-15.13671875,0.0
1034,-13.671875,-178.7109375,16.6015625,-2.9296875
1035,-7.8125,-168.45703125,39.55078125,-8.30078125
1036,0.0,-216.30859375,-74.21875,-12.20703125
1037,-11.71875,-152.34375,-25.390625,-20.01953125
1038,-15.625,-105.46875,114.74609375,-14.6484375
1039,-10.7421875,-143.06640625,94.7265625,-3.90625
1040,-15.13671875,-212.40234375,-90.8203125,-5.37109375
1041,-26.85546875,-105.46875,22.4609375,-18.06640625
1042,-21.484375,-68.359375,188.96484375,-14.6484375
1043,-11.71875,-137.6953125,75.68359375,-13.18359375
1044,-17.578125,-110.3515625,98.6328125,-18.5546875
1045,-21.484375,-71.77734375,161.62109375,-15.13671875
1046,-20.5078125,-81.54296875,157.71484375,-20.99609375
1047,-16.6015625,-103.02734375,118.1640625,-21.97265625
1048,-20.99609375,-81.0546875,115.234375,-21.97265625
1049,-32.71484375,-56.15234375,169.43359375,-32.2265625
1050,-30.2734375,-33.203125,218.26171875,-35.15625
1051,-25.390625,-87.890625,167.96875,-23.4375
1052,-20.01953125,-102.05078125,63.4765625,-12.20703125
1053,-19.04296875,52.24609375,292.96875,-15.13671875
1054,-18.5546875,-23.4375,313.4765625,-18.06640625
1055,-22.94921875,-67.87109375,161.1328125,-20.01953125
1056,-21.97265625,-20.5078125,226.5625,-23.92578125
1057,-16.6015625,-33.203125,256.8359375,-18.06640625
1058,-18.06640625,-67.3828125,199.70703125,-20.01953125
1059,-17.578125,-48.828125,188.96484375,-29.78515625
1060,-18.5546875,-36.1328125,221.19140625,-28.80859375
1061,-7.32421875,-87.890625,160.64453125,-11.71875
1062,3.90625,-62.98828125,180.17578125,-7.32421875
1063,-13.18359375,-105.46875,87.40234375,-21.97265625
1064,-41.50390625,-42.96875,180.6640625,-33.203125
1065,-40.52734375,-12.6953125,328.125,-41.015625
1066,-28.80859375,-123.53515625,120.1171875,-46.875
1067,-36.62109375,-94.23828125,86.42578125,-44.921875
1068,-30.2734375,-48.828125,164.0625,-35.64453125
1069,-27.83203125,-84.9609375,109.375,-39.0625
1070,-28.80859375,-156.25,-45.8984375,-39.0625
1071,-27.34375,-126.46484375,-107.421875,-34.1796875
1072,-22.4609375,-72.265625,-17.08984375,-33.203125
1073,-18.5546875,-138.18359375,-96.19140625,-27.34375
1074,-25.390625,-195.80078125,-230.95703125,-20.5078125
1075,-23.4375,-168.9453125,-231.4453125,-17.08984375
1076,-25.87890625,-104.4921875,-125.9765625,-26.85546875
1077,-30.76171875,-200.68359375,-246.09375,-33.203125
1078,-27.34375,-272.94921875,-424.8046875,-27.34375
1079,-36.1328125,-237.79296875,-380.37109375,-26.3671875
1080,-39.0625,-191.89453125,-288.57421875,-30.2734375
1081,-34.66796875,-252.44140625,-408.69140625,-29.296875
1082,-31.25,-254.39453125,-483.3984375,-32.71484375
1083,-20.5078125,-220.21484375,-438.4765625,-35.64453125
1084,-24.90234375,-268.06640625,-475.5859375,-28.80859375
1085,-32.2265625,-306.15234375,-564.453125,-25.87890625
1086,-31.25,-320.3125,-645.01953125,-18.5546875
1087,-32.71484375,-254.39453125,-529.78515625,-11.23046875
1088,-27.83203125,-232.91015625,-407.2265625,-21.484375
1089,-12.20703125,-314.94140625,-563.96484375,-11.71875
1090,9.765625,-284.66796875,-561.5234375,6.34765625
1091,14.16015625,-277.83203125,-544.921875,5.859375
1092,-3.90625,-275.87890625,-520.5078125,-4.39453125
1093,-11.71875,-300.78125,-514.6484375,-11.71875
1094,-2.9296875,-298.33984375,-544.43359375,-16.11328125
1095,1.46484375,-234.86328125,-427.24609375,-17.08984375
1096,-2.9296875,-284.66796875,-443.359375,-14.16015625
1097,-6.8359375,-357.91015625,-554.6875,-19.53125
1098,-7.8125,-291.9921875,-482.421875,-14.16015625
1099,-10.25390625,-212.890625,-280.76171875,-15.13671875
1100,-14.6484375,-309.5703125,-329.58984375,-23.92578125
1101,-12.6953125,-336.9140625,-406.25,-19.53125
1102,-23.92578125,-298.828125,-321.2890625,-17.08984375
1103,-24.90234375,-283.69140625,-250.9765625,-21.484375
1104,-16.11328125,-310.546875,-284.1796875,-20.01953125
1105,-22.4609375,-328.125,-314.453125,-16.11328125
1106,-18.5546875,-261.23046875,-228.02734375,-14.6484375
1107,-19.53125,-213.37890625,-100.5859375,-19.53125
1108,-28.80859375,-252.9296875,-108.88671875,-32.2265625
1109,-31.73828125,-329.1015625,-268.06640625,-47.8515625
1110,-42.96875,-230.46875,-136.71875,-52.734375
1111,-43.45703125,-137.6953125,104.98046875,-55.6640625
1112,-28.3203125,-234.86328125,-26.3671875,-50.78125
1113,-24.90234375,-202.1484375,-28.80859375,-40.0390625
1114,-29.78515625,-184.08203125,29.296875,-35.15625
1115,-24.90234375,-213.37890625,26.85546875,-26.85546875
1116,-22.94921875,-221.6796875,16.6015625,-22.4609375
1117,-17.578125,-221.19140625,11.23046875,-29.78515625
1118,-3.90625,-176.7578125,94.7265625,-34.1796875
1119,-8.30078125,-183.10546875,93.75,-32.2265625
1120,-19.04296875,-241.69921875,14.6484375,-34.66796875
1121,-19.53125,-244.62890625,-2.44140625,-24.90234375
1122,-12.20703125,-159.1796875,116.69921875,-15.13671875
1123,-12.6953125,-120.1171875,201.171875,-13.18359375
1124,-18.5546875,-230.95703125,61.03515625,-13.18359375
1125,-8.7890625,-209.47265625,-7.32421875,-7.32421875
1126,1.46484375,-56.15234375,250.0,-8.7890625
1127,-5.37109375,-164.0625,196.77734375,-21.484375
1128,-8.7890625,-200.1953125,73.73046875,-30.2734375
1129,-5.37109375,-156.73828125,136.23046875,-27.83203125
1130,-8.7890625,-167.48046875,160.15625,-22.4609375
1131,-22.4609375,-196.2890625,128.90625,-26.3671875
1132,-27.83203125,-210.9375,90.33203125,-29.78515625
1133,-23.92578125,-192.87109375,96.6796875,-29.296875
1134,-27.83203125,-191.40625,128.90625,-29.78515625
1135,-22.94921875,-188.4765625,144.53125,-24.90234375
1136,-22.94921875,-248.53515625,17.08984375,-17.08984375
1137,-25.87890625,-177.24609375,97.16796875,-17.578125
1138,-23.92578125,-92.7734375,293.45703125,-22.4609375
1139,-29.78515625,-204.58984375,104.00390625,-19.53125
1140,-25.87890625,-185.546875,70.80078125,-25.390625
1141,-15.13671875,-128.41796875,140.13671875,-24.4140625
1142,-16.6015625,-132.32421875,104.4921875,-22.4609375
1143,-14.6484375,-147.94921875,28.80859375,-34.1796875
1144,-17.578125,-139.16015625,8.30078125,-30.2734375
1145,-17.08984375,-103.515625,41.015625,-24.4140625
1146,-17.08984375,-39.55078125,80.56640625,-28.3203125
1147,-22.94921875,-93.26171875,-18.06640625,-24.4140625
1148,-19.53125,-57.6171875,-62.01171875,-21.484375
1149,-15.625,72.75390625,100.5859375,-20.5078125
1150,-10.7421875,44.921875,63.96484375,-14.16015625
1151,-14.6484375,-22.4609375,-93.26171875,-9.765625
1152,-15.625,31.25,-77.1484375,-4.39453125
1153,-26.3671875,110.3515625,37.109375,-18.06640625
1154,-35.15625,58.59375,-56.640625,-21.484375
1155,-31.73828125,83.984375,-102.05078125,-20.01953125
1156,-39.0625,113.28125,-82.51953125,-29.78515625
1157,-43.45703125,98.6328125,-107.91015625,-23.4375
1158,-46.38671875,132.32421875,-76.66015625,-21.484375
1159,-45.8984375,86.9140625,-177.734375,-24.4140625
1160,-37.109375,138.671875,-140.625,-20.5078125
1161,-31.73828125,185.05859375,-2.9296875,-29.78515625
1162,-28.80859375,109.86328125,-133.7890625,-27.34375
1163,-31.25,100.09765625,-200.68359375,-23.4375
1164,-34.66796875,153.80859375,-125.0,-39.0625
1165,-31.25,173.828125,-68.359375,-44.921875
1166,-28.3203125,108.3984375,-187.01171875,-46.38671875
1167,-28.3203125,123.53515625,-202.1484375,-42.48046875
1168,-26.3671875,164.55078125,-123.53515625,-33.203125
1169,-6.34765625,138.18359375,-187.98828125,-22.4609375
1170,-11.71875,109.375,-232.91015625,-29.78515625
1171,-43.9453125,94.23828125,-306.15234375,-39.0625
1172,-40.52734375,227.05078125,-130.37109375,-29.296875
1173,-30.2734375,180.17578125,-87.890625,-31.73828125
1174,-32.2265625,117.1875,-251.953125,-37.59765625
1175,-32.71484375,162.59765625,-233.88671875,-39.0625
1176,-32.2265625,153.80859375,-208.984375,-34.66796875
1177,-34.1796875,104.98046875,-295.41015625,-37.59765625
1178,-40.52734375,108.3984375,-360.83984375,-45.8984375
1179,-42.96875,180.6640625,-271.484375,-42.96875
1180,-40.52734375,142.08984375,-265.625,-42.48046875
1181,-46.38671875,100.5859375,-342.7734375,-46.875
1182,-44.921875,62.98828125,-456.0546875,-38.0859375
1183,-37.109375,122.0703125,-379.39453125,-26.3671875
1184,-45.8984375,182.12890625,-220.703125,-36.1328125
1185,-49.8046875,84.47265625,-367.1875,-36.1328125
1186,-39.55078125,90.33203125,-395.5078125,-31.73828125
1187,-38.0859375,121.09375,-357.421875,-38.57421875
1188,-37.59765625,100.5859375,-374.0234375,-41.9921875
1189,-31.25,61.03515625,-458.0078125,-58.10546875
1190,-36.62109375,75.1953125,-453.61328125,-62.5
1191,-42.96875,105.46875,-377.44140625,-60.05859375
1192,-36.62109375,77.63671875,-434.08203125,-59.5703125
1193,-37.59765625,17.578125,-511.71875,-45.41015625
1194,-41.50390625,4.39453125,-599.12109375,-32.2265625
1195,-38.0859375,153.3203125,-379.8828125,-32.2265625
1196,-44.921875,123.53515625,-300.78125,-26.3671875
1197,-51.7578125,38.57421875,-481.4453125,-23.92578125
1198,-44.43359375,76.66015625,-457.03125,-26.85546875
1199,-48.33984375,89.84375,-408.69140625,-30.76171875
1200,-50.29296875,56.15234375,-442.3828125,-25.87890625
1201,-49.31640625,51.7578125,-477.05078125,-17.08984375
1202,-45.41015625,88.8671875,-420.41015625,-22.94921875
1203,-35.15625,82.51953125,-376.953125,-24.4140625
1204,-36.62109375,38.57421875,-419.921875,-24.90234375
1205,-41.50390625,36.1328125,-458.49609375,-29.296875
1206,-53.22265625,66.40625,-402.83203125,-33.203125
1207,-62.01171875,67.87109375,-347.65625,-28.80859375
1208,-49.8046875,59.08203125,-325.1953125,-27.34375
1209,-30.76171875,-20.01953125,-472.16796875,-18.5546875
1210,-24.90234375,70.3125,-364.74609375,-13.18359375
1211,-35.15625,113.28125,-179.6875,-23.92578125
1212,-42.96875,10.7421875,-319.82421875,-24.4140625
1213,-37.109375,22.94921875,-318.84765625,-20.99609375
1214,-34.1796875,66.89453125,-216.30859375,-29.296875
1215,-41.9921875,49.31640625,-212.40234375,-28.80859375
1216,-42.96875,-0.9765625,-274.4140625,-25.390625
1217,-45.8984375,-18.5546875,-287.59765625,-32.2265625
1218,-43.9453125,50.29296875,-152.83203125,-35.15625
1219,-39.55078125,60.05859375,-77.63671875,-37.109375
1220,-45.8984375,-45.41015625,-205.078125,-38.0859375
1221,-48.33984375,-46.875,-237.3046875,-34.66796875
1222,-45.41015625,52.24609375,-41.50390625,-37.109375
1223,-43.9453125,19.53125,-6.34765625,-44.921875
1224,-54.19921875,-58.10546875,-145.01953125,-48.33984375
1225,-59.08203125,-21.484375,-112.79296875,-50.29296875
1226,-54.19921875,30.2734375,30.76171875,-57.6171875
1227,-48.828125,-30.2734375,-24.90234375,-56.640625
1228,-49.8046875,-39.55078125,-61.03515625,-49.31640625
1229,-60.546875,-20.01953125,-31.25,-46.38671875
1230,-52.734375,9.765625,51.7578125,-44.43359375
1231,-41.9921875,-7.8125,74.70703125,-44.921875
1232,-45.41015625,-83.984375,-98.6328125,-36.62109375
1233,-48.33984375,5.37109375,9.765625,-36.62109375
1234,-42.96875,38.0859375,172.36328125,-46.38671875
1235,-49.8046875,-58.59375,45.8984375,-41.015625
1236,-53.22265625,-48.828125,20.99609375,-41.50390625
1237,-41.50390625,-11.23046875,84.9609375,-36.62109375
1238,-49.31640625,-39.55078125,85.44921875,-37.109375
1239,-50.78125,-91.796875,23.4375,-37.59765625
1240,-41.9921875,-121.58203125,-1.953125,-29.78515625
1241,-43.45703125,-113.28125,36.62109375,-35.15625
1242,-41.50390625,-86.42578125,99.609375,-36.1328125
1243,-26.3671875,-170.41015625,55.17578125,-25.390625
1244,-19.04296875,-187.98828125,15.13671875,-13.671875
1245,-36.62109375,-94.7265625,196.2890625,-27.34375
1246,-44.43359375,-202.1484375,146.97265625,-41.015625
1247,-41.9921875,-261.71875,25.87890625,-42.48046875
1248,-38.0859375,-243.1640625,81.0546875,-33.69140625
1249,-39.0625,-266.11328125,145.5078125,-22.94921875
1250,-34.1796875,-326.66015625,83.49609375,-25.390625
1251,-29.296875,-348.6328125,36.1328125,-18.5546875
1252,-34.66796875,-315.4296875,141.11328125,-20.01953125
1253,-26.85546875,-343.75,167.96875,-19.53125
1254,-18.5546875,-356.4453125,141.6015625,-12.20703125
1255,-19.53125,-304.6875,199.70703125,-17.578125
1256,-30.76171875,-300.78125,251.953125,-20.99609375
1257,-28.3203125,-343.75,239.2578125,-14.6484375
1258,-18.06640625,-380.859375,167.96875,-10.7421875
1259,-22.4609375,-398.92578125,66.89453125,-20.5078125
1260,-24.90234375,-285.64453125,219.7265625,-24.4140625
1261,-26.85546875,-297.8515625,304.6875,-23.4375
1262,-35.64453125,-368.65234375,169.921875,-24.90234375
1263,-33.203125,-342.28515625,178.7109375,-18.5546875
1264,-36.1328125,-326.171875,206.54296875,-16.6015625
1265,-38.0859375,-320.80078125,165.0390625,-22.94921875
1266,-45.41015625,-356.4453125,98.14453125,-20.99609375
1267,-48.828125,-371.09375,15.625,-14.6484375
1268,-42.96875,-214.35546875,225.09765625,-20.01953125
1269,-38.0859375,-250.48828125,273.92578125,-29.296875
1270,-42.48046875,-317.3828125,109.375,-26.3671875
1271,-45.8984375,-266.6015625,129.39453125,-33.203125
1272,-37.59765625,-245.60546875,194.82421875,-38.57421875
1273,-32.2265625,-276.3671875,160.64453125,-38.0859375
1274,-37.109375,-288.57421875,94.23828125,-40.0390625
1275,-32.71484375,-223.14453125,174.8046875,-35.64453125
1276,-40.0390625,-250.48828125,171.38671875,-44.43359375
1277,-45.41015625,-269.04296875,118.65234375,-41.9921875
1278,-35.64453125,-285.64453125,49.31640625,-28.3203125
1279,-41.015625,-215.33203125,115.234375,-36.1328125
1280,-45.41015625,-131.8359375,297.36328125,-45.41015625
1281,-45.8984375,-230.46875,184.5703125,-49.8046875
1282,-41.015625,-200.1953125,137.6953125,-47.36328125
1283,-36.62109375,-124.51171875,236.328125,-40.52734375
1284,-22.94921875,-154.296875,244.62890625,-29.78515625
1285,-25.390625,-191.40625,152.34375,-22.94921875
1286,-49.31640625,-173.33984375,147.94921875,-41.9921875
1287,-58.59375,-125.48828125,229.00390625,-56.15234375
1288,-58.10546875,-146.97265625,192.87109375,-46.38671875
1289,-55.6640625,-199.21875,98.6328125,-41.50390625
1290,-46.38671875,-116.69921875,141.6015625,-41.9921875
1291,-52.734375,-4.8828125,314.94140625,-39.0625
1292,-63.96484375,-76.171875,260.7421875,-47.36328125
1293,-56.640625,-139.6484375,93.75,-53.22265625
1294,-53.22265625,-74.21875,134.27734375,-52.734375
1295,-47.8515625,-6.8359375,231.93359375,-54.6875
1296,-50.29296875,-55.6640625,152.83203125,-50.78125
1297,-44.921875,-63.96484375,71.2890625,-45.8984375
1298,-40.52734375,7.32421875,130.37109375,-48.828125
1299,-47.36328125,19.04296875,174.31640625,-56.15234375
1300,-47.36328125,-35.15625,84.47265625,-50.29296875
1301,-52.24609375,-47.36328125,-0.48828125,-48.33984375
1302,-57.6171875,30.2734375,80.078125,-50.78125
1303,-50.29296875,60.546875,164.0625,-48.33984375
1304,-46.875,8.7890625,77.63671875,-47.8515625
1305,-45.8984375,13.18359375,-26.3671875,-39.55078125
1306,-41.9921875,125.0,111.81640625,-39.0625
1307,-36.1328125,78.61328125,162.59765625,-40.0390625
1308,-38.57421875,17.578125,26.3671875,-41.9921875
1309,-44.921875,106.93359375,101.07421875,-44.43359375
1310,-43.9453125,155.2734375,213.8671875,-41.015625
1311,-39.55078125,112.79296875,173.33984375,-39.0625
1312,-40.0390625,58.10546875,93.26171875,-39.55078125
1313,-39.55078125,45.41015625,63.4765625,-45.8984375
1314,-44.921875,122.0703125,175.78125,-50.78125
1315,-50.29296875,132.8125,231.93359375,-47.36328125
1316,-43.9453125,22.4609375,81.0546875,-40.52734375
1317,-38.57421875,42.48046875,90.33203125,-40.52734375
1318,-36.62109375,139.16015625,248.046875,-46.875
1319,-45.41015625,72.265625,176.26953125,-51.7578125
1320,-40.0390625,62.01171875,114.2578125,-48.33984375
1321,-22.94921875,94.7265625,136.71875,-28.3203125
1322,-22.4609375,76.171875,128.41796875,-31.73828125
1323,-31.25,62.01171875,123.046875,-44.921875
1324,-26.85546875,26.85546875,54.6875,-37.59765625
1325,-25.87890625,58.10546875,66.89453125,-37.59765625
1326,-40.0390625,94.7265625,163.57421875,-44.43359375
1327,-44.921875,43.45703125,134.765625,-46.875
1328,-40.52734375,-33.203125,-20.01953125,-45.8984375
1329,-41.9921875,54.6875,90.33203125,-48.828125
1330,-46.38671875,41.9921875,191.89453125,-53.7109375
1331,-49.31640625,-46.875,31.25,-50.29296875
1332,-39.0625,13.671875,103.02734375,-44.43359375
1333,-51.7578125,28.3203125,171.875,-38.57421875
1334,-62.01171875,-4.8828125,123.046875,-39.55078125
1335,-52.734375,-42.96875,61.5234375,-40.0390625
1336,-48.828125,-53.7109375,56.15234375,-37.109375
1337,-38.0859375,-19.53125,112.3046875,-33.69140625
1338,-42.96875,9.765625,143.5546875,-28.80859375
1339,-48.828125,-61.5234375,100.09765625,-40.52734375
1340,-45.41015625,-83.49609375,13.671875,-40.0390625
1341,-48.828125,73.73046875,211.42578125,-32.2265625
1342,-49.8046875,19.04296875,264.16015625,-28.3203125
1343,-48.828125,-50.78125,115.72265625,-24.4140625
1344,-41.9921875,1.46484375,164.0625,-28.3203125
1345,-32.2265625,3.90625,210.44921875,-22.94921875
1346,-25.390625,-24.4140625,180.6640625,-20.01953125
1347,-30.76171875,-18.06640625,155.2734375,-21.97265625
1348,-32.71484375,-3.90625,171.875,-27.83203125
1349,-30.2734375,-41.9921875,139.6484375,-32.71484375
1350,-40.0390625,-4.8828125,181.640625,-34.66796875
1351,-33.203125,-62.98828125,90.8203125,-30.76171875
1352,-34.66796875,7.8125,161.62109375,-30.76171875
1353,-49.8046875,95.21484375,364.74609375,-40.52734375
1354,-46.38671875,-23.92578125,200.1953125,-37.109375
1355,-46.38671875,1.953125,157.2265625,-33.69140625
1356,-41.50390625,48.33984375,255.859375,-37.109375
1357,-30.76171875,7.32421875,231.93359375,-44.43359375
1358,-39.0625,-21.484375,143.5546875,-44.921875
1359,-41.9921875,4.8828125,166.50390625,-31.73828125
1360,-44.43359375,0.0,187.98828125,-27.83203125
1361,-51.7578125,-18.06640625,141.6015625,-30.2734375
1362,-42.96875,-32.2265625,116.69921875,-29.78515625
1363,-30.2734375,15.13671875,154.296875,-29.78515625
1364,-36.1328125,99.12109375,276.3671875,-37.109375
1365,-39.55078125,6.34765625,188.4765625,-43.9453125
1366,-10.25390625,-50.29296875,51.26953125,-20.5078125
1367,-6.8359375,19.53125,137.20703125,-12.20703125
1368,-41.50390625,79.58984375,258.30078125,-41.015625
1369,-37.59765625,13.671875,146.97265625,-43.9453125
1370,-34.66796875,21.97265625,105.46875,-40.52734375
1371,-49.8046875,79.58984375,188.96484375,-40.52734375
1372,-36.1328125,37.59765625,173.828125,-35.15625
1373,-35.64453125,18.06640625,132.8125,-40.52734375
1374,-44.921875,-3.41796875,70.3125,-31.73828125
1375,-51.7578125,45.8984375,135.25390625,-33.69140625
1376,-59.08203125,92.28515625,264.16015625,-54.6875
1377,-60.546875,6.34765625,138.18359375,-57.12890625
1378,-52.734375,20.99609375,128.90625,-48.33984375
1379,-48.828125,38.0859375,162.109375,-45.41015625
1380,-42.48046875,14.6484375,119.62890625,-48.828125
1381,-34.1796875,-2.9296875,83.49609375,-45.8984375
1382,-38.0859375,1.46484375,88.8671875,-42.96875
1383,-51.26953125,30.76171875,170.8984375,-45.8984375
1384,-48.828125,-18.5546875,140.13671875,-48.33984375
1385,-36.1328125,-102.05078125,12.6953125,-45.8984375
1386,-42.96875,-60.05859375,-1.46484375,-46.875
1387,-42.96875,50.29296875,170.8984375,-45.41015625
1388,-39.0625,-33.203125,122.0703125,-47.36328125
1389,-39.0625,-95.703125,-22.94921875,-51.26953125
1390,-37.59765625,-64.453125,-4.39453125,-44.43359375
1391,-34.66796875,-41.50390625,54.19921875,-52.24609375
1392,-23.4375,-74.70703125,13.671875,-52.24609375
1393,-18.5546875,-80.56640625,-46.38671875,-41.015625
1394,-33.69140625,-61.5234375,-62.01171875,-43.9453125
1395,-33.69140625,-51.7578125,-28.3203125,-46.38671875
1396,-20.99609375,-49.31640625,6.8359375,-44.43359375
1397,-22.4609375,-140.13671875,-190.4296875,-34.66796875
1398,-29.296875,-50.29296875,-138.18359375,-26.3671875
1399,-36.1328125,35.64453125,68.359375,-36.1328125
1400,-32.2265625,-72.265625,-87.890625,-34.1796875
1401,-29.296875,-44.921875,-135.7421875,-33.69140625
1402,-35.64453125,0.0,-65.91796875,-43.9453125
1403,-35.64453125,-39.55078125,-98.14453125,-43.45703125
1404,-33.203125,-80.56640625,-182.12890625,-38.57421875
1405,-29.78515625,-78.61328125,-187.98828125,-32.71484375
1406,-33.203125,-44.921875,-133.7890625,-34.66796875
1407,-36.62109375,-70.3125,-161.62109375,-32.2265625
1408,-30.76171875,-127.9296875,-237.3046875,-27.34375
1409,-30.2734375,-133.7890625,-272.4609375,-21.97265625
1410,-27.34375,-96.19140625,-216.796875,-22.94921875
1411,-30.2734375,-83.0078125,-160.15625,-40.52734375
1412,-37.59765625,-191.89453125,-274.4140625,-40.0390625
1413,-42.48046875,-226.07421875,-396.484375,-27.83203125
1414,-40.0390625,-62.5,-148.4375,-40.52734375
1415,-26.3671875,-131.8359375,-125.48828125,-49.31640625
1416,-28.3203125,-193.84765625,-273.4375,-50.78125
1417,-32.2265625,-160.15625,-232.421875,-50.29296875
1418,-30.76171875,-173.33984375,-194.3359375,-45.8984375
1419,-29.78515625,-208.984375,-219.7265625,-40.0390625
1420,-33.69140625,-233.3984375,-269.53125,-31.73828125
1421,-46.875,-207.51953125,-231.93359375,-27.83203125
1422,-49.8046875,-177.24609375,-137.20703125,-26.85546875
1423,-54.6875,-191.89453125,-117.1875,-30.2734375
1424,-54.19921875,-276.85546875,-270.01953125,-22.4609375
1425,-56.15234375,-188.4765625,-151.85546875,-18.5546875
1426,-58.10546875,-119.62890625,54.6875,-30.76171875
1427,-54.19921875,-232.91015625,-94.7265625,-38.57421875
1428,-50.78125,-221.6796875,-116.69921875,-33.203125
1429,-48.828125,-174.8046875,-11.23046875,-32.71484375
1430,-46.875,-199.21875,-10.7421875,-40.52734375
1431,-50.78125,-254.8828125,-82.03125,-44.921875
1432,-54.19921875,-260.7421875,-71.2890625,-39.0625
1433,-47.36328125,-234.375,-16.11328125,-33.69140625
1434,-42.96875,-188.4765625,48.828125,-34.66796875
1435,-36.62109375,-241.69921875,-4.39453125,-36.62109375
1436,-42.48046875,-209.47265625,0.9765625,-32.2265625
1437,-52.734375,-111.81640625,154.78515625,-30.76171875
1438,-44.43359375,-181.640625,83.49609375,-37.109375
1439,-38.57421875,-218.26171875,8.7890625,-41.9921875
1440,-42.96875,-169.43359375,86.9140625,-46.875
1441,-49.31640625,-115.234375,189.453125,-45.8984375
1442,-46.38671875,-175.29296875,125.48828125,-45.8984375
1443,-43.45703125,-178.22265625,64.94140625,-53.22265625
1444,-45.41015625,-129.39453125,120.60546875,-51.26953125
1445,-46.38671875,-148.4375,133.7890625,-43.45703125
1446,-53.22265625,-133.7890625,130.859375,-44.921875
1447,-53.7109375,-164.0625,55.17578125,-45.41015625
1448,-62.5,-103.02734375,122.0703125,-54.19921875
1449,-58.59375,-48.33984375,240.234375,-69.3359375
1450,-48.33984375,-120.60546875,88.37890625,-69.82421875
1451,-51.26953125,-93.26171875,66.89453125,-68.359375
1452,-55.17578125,-36.62109375,97.16796875,-63.96484375
1453,-55.17578125,-4.39453125,96.6796875,-56.640625
1454,-51.26953125,-41.015625,19.53125,-53.7109375
1455,-54.6875,-4.8828125,-8.30078125,-51.7578125
1456,-55.6640625,52.734375,57.6171875,-51.7578125
1457,-46.875,23.92578125,-2.9296875,-63.4765625
1458,-40.52734375,7.8125,-61.5234375,-64.453125
1459,-42.48046875,58.59375,-53.22265625,-64.94140625
1460,-42.48046875,162.109375,81.54296875,-63.96484375
1461,-41.9921875,89.35546875,34.1796875,-64.453125
1462,-49.8046875,46.875,-83.49609375,-67.3828125
1463,-44.921875,83.0078125,-47.36328125,-64.94140625
1464,-34.1796875,100.09765625,6.8359375,-61.03515625
1465,-41.015625,57.12890625,-61.5234375,-52.734375
1466,-41.50390625,20.01953125,-127.44140625,-46.38671875
1467,-38.57421875,75.68359375,-68.359375,-42.96875
1468,-32.71484375,55.6640625,-55.17578125,-41.015625
1469,-28.80859375,28.80859375,-102.05078125,-45.8984375
1470,-30.2734375,-12.20703125,-202.63671875,-43.9453125
1471,-27.83203125,43.45703125,-138.18359375,-41.9921875
1472,-23.4375,123.53515625,76.171875,-40.0390625
1473,-16.11328125,-3.90625,-81.0546875,-23.92578125
1474,-17.578125,-2.44140625,-131.34765625,-25.87890625
1475,-29.296875,19.53125,-77.63671875,-38.57421875
1476,-26.3671875,-10.25390625,-111.81640625,-47.36328125
1477,-21.484375,-50.78125,-166.50390625,-43.9453125
1478,-32.71484375,-50.29296875,-166.50390625,-41.9921875
1479,-35.15625,-24.4140625,-101.5625,-45.8984375
1480,-25.87890625,-49.31640625,-125.0,-40.0390625
1481,-26.3671875,-109.86328125,-204.1015625,-33.203125
1482,-30.2734375,-97.65625,-208.984375,-30.2734375
1483,-27.34375,3.90625,-34.66796875,-31.73828125
1484,-27.83203125,-41.9921875,-24.4140625,-28.3203125
1485,-36.1328125,-152.34375,-203.125,-30.76171875
1486,-20.5078125,-117.67578125,-162.109375,-10.7421875
1487,-32.71484375,-65.4296875,-35.64453125,-25.87890625
1525,52.24609375,-52.24609375,15.625,28.3203125
1526,49.8046875,-71.2890625,-7.8125,16.6015625
1527,42.48046875,-104.00390625,-88.37890625,20.5078125
1529,38.57421875,-54.19921875,-43.45703125,30.2734375
1530,41.50390625,-27.34375,19.53125,26.85546875
1531,34.66796875,-117.1875,-73.73046875,22.94921875
1532,33.203125,-138.18359375,-150.87890625,25.390625
1533,37.109375,-60.05859375,12.20703125,26.85546875
1534,32.71484375,-170.41015625,-51.26953125,19.53125
1535,34.1796875,-214.35546875,-161.1328125,11.71875
1536,23.92578125,-161.62109375,-101.5625,9.27734375
1537,19.04296875,-138.671875,-33.203125,9.765625
1538,27.34375,-187.5,-97.65625,6.34765625
1539,20.5078125,-204.1015625,-181.640625,9.765625
1540,16.11328125,-122.0703125,-74.70703125,18.06640625
1541,17.08984375,-123.53515625,-21.484375,13.18359375
1542,15.625,-132.8125,-57.12890625,11.23046875
1543,18.5546875,-82.51953125,-10.7421875,12.6953125
1544,4.39453125,-47.8515625,59.08203125,0.0
1545,0.0,-68.84765625,60.546875,-4.39453125
1546,11.23046875,-105.95703125,21.97265625,0.9765625
1547,7.32421875,-164.0625,-122.55859375,9.27734375
1548,0.9765625,-87.40234375,-21.97265625,9.765625
1549,5.859375,-99.12109375,81.54296875,3.41796875
1550,7.8125,-175.78125,-59.08203125,21.484375
1551,7.8125,-145.99609375,-40.52734375,25.390625
1552,0.48828125,-152.83203125,-16.6015625,9.27734375
1553,2.44140625,-154.296875,-37.109375,5.37109375
1554,8.7890625,-156.25,-15.625,4.8828125
1555,-1.953125,-171.875,-80.56640625,6.8359375
1556,-3.90625,-22.94921875,104.4921875,8.7890625
1557,10.25390625,-44.43359375,177.734375,5.37109375
1558,11.71875,-129.39453125,28.3203125,4.39453125
1559,-2.9296875,-84.9609375,59.08203125,-1.953125
1560,-5.859375,-56.640625,125.9765625,-9.765625
1561,-3.90625,-87.890625,97.65625,-14.6484375
1562,0.0,-86.42578125,63.96484375,-14.16015625
1563,-3.41796875,-26.85546875,142.08984375,-14.6484375
1564,-12.20703125,-62.5,152.83203125,-20.01953125
1565,-15.625,-111.328125,81.0546875,-16.11328125
1566,-16.6015625,-53.22265625,123.046875,-21.484375
1567,-17.08984375,-43.45703125,175.29296875,-26.3671875
1568,-16.11328125,-78.125,197.265625,-23.4375
1569,-17.578125,-91.30859375,203.61328125,-35.64453125
1570,-17.578125,-184.08203125,36.62109375,-29.296875
1571,-21.484375,-80.078125,135.25390625,-21.97265625
1572,-24.90234375,13.18359375,339.35546875,-35.64453125
1573,-33.69140625,-96.19140625,186.03515625,-38.0859375
1574,-37.109375,-89.84375,141.6015625,-31.73828125
1575,-28.3203125,-41.015625,217.7734375,-32.71484375
1576,-18.5546875,-58.10546875,188.96484375,-26.85546875
1577,-11.71875,-129.39453125,86.42578125,-13.18359375
1578,-7.8125,-68.84765625,115.234375,-4.39453125
1579,1.46484375,50.29296875,284.1796875,-1.953125
1580,1.953125,-33.69140625,241.2109375,-13.671875
1581,-0.48828125,-99.609375,115.234375,-7.32421875
1582,-3.90625,-54.19921875,123.53515625,0.9765625
1583,-14.6484375,-16.6015625,194.82421875,-13.671875
1584,-12.6953125,-60.05859375,159.1796875,-18.06640625
1585,-12.20703125,-144.04296875,17.08984375,-17.08984375
1586,-21.484375,-103.515625,18.5546875,-22.4609375
1587,-15.625,-31.73828125,141.11328125,-23.92578125
1588,-7.8125,-118.65234375,47.8515625,-16.11328125
1589,-19.53125,-161.62109375,-79.58984375,-20.5078125
1590,-23.92578125,-80.078125,-4.39453125,-31.25
1591,-21.484375,-72.75390625,50.78125,-26.3671875
1592,-28.80859375,-162.59765625,-86.9140625,-27.34375
1593,-29.78515625,-143.06640625,-165.0390625,-22.94921875
1594,-31.25,-68.359375,-93.75,-11.71875
1595,-33.69140625,-124.0234375,-137.6953125,-24.90234375
1596,-33.203125,-176.7578125,-262.20703125,-34.66796875
1597,-28.80859375,-120.60546875,-266.11328125,-33.203125
1598,-23.92578125,-71.77734375,-227.05078125,-43.45703125
1599,-30.76171875,-123.046875,-296.875,-53.22265625
1600,-29.78515625,-176.26953125,-418.9453125,-49.8046875
1601,-19.04296875,-182.6171875,-473.6328125,-34.66796875
1602,-23.4375,-112.3046875,-400.87890625,-37.109375
1603,-26.3671875,-95.703125,-374.51171875,-33.69140625
1604,-20.01953125,-214.35546875,-527.83203125,-17.08984375
1605,-17.08984375,-199.21875,-563.4765625,-18.5546875
1606,-18.5546875,-70.80078125,-403.80859375,-22.4609375
1607,-16.6015625,-140.13671875,-473.14453125,-17.08984375
1608,-25.87890625,-182.12890625,-579.58984375,-17.578125
1609,-21.97265625,-132.8125,-541.50390625,-19.04296875
1610,-17.08984375,-154.296875,-526.3671875,-25.390625
1611,-18.06640625,-199.21875,-592.7734375,-27.83203125
1612,-27.34375,-166.50390625,-601.07421875,-19.04296875
1613,-36.1328125,-140.13671875,-569.3359375,-13.18359375
1614,-24.4140625,-129.8828125,-526.85546875,-18.5546875
1615,-20.99609375,-147.94921875,-517.08984375,-17.578125
1616,-14.16015625,-267.578125,-696.2890625,-4.39453125
1617,-10.7421875,-166.50390625,-615.234375,-1.953125
1618,-21.484375,-79.58984375,-414.55078125,-16.6015625
1619,-16.6015625,-216.796875,-574.70703125,-20.5078125
1620,-15.13671875,-205.078125,-599.609375,-19.04296875
1621,-22.4609375,-153.80859375,-519.04296875,-27.34375
1622,-20.99609375,-159.66796875,-521.484375,-29.296875
1623,-17.578125,-187.01171875,-568.84765625,-34.1796875
1624,-17.08984375,-196.2890625,-603.515625,-31.25
1625,-19.04296875,-152.83203125,-553.7109375,-19.53125
1626,-12.6953125,-123.53515625,-493.65234375,-19.04296875
1627,-7.8125,-194.3359375,-547.36328125,-22.4609375
1628,-16.6015625,-163.57421875,-553.22265625,-23.4375
1629,-18.06640625,-36.62109375,-384.27734375,-25.390625
1630,-9.27734375,-110.3515625,-401.85546875,-30.2734375
1631,-5.37109375,-191.40625,-544.43359375,-27.34375
1632,-9.765625,-127.44140625,-499.51171875,-22.94921875
1633,-12.20703125,-80.078125,-420.41015625,-23.92578125
1634,-6.34765625,-111.328125,-489.74609375,-23.4375
1635,0.9765625,-163.0859375,-601.07421875,-16.11328125
1636,-13.671875,-104.98046875,-553.7109375,-26.85546875
1637,-18.5546875,-34.66796875,-458.49609375,-43.45703125
1638,4.39453125,-59.5703125,-505.859375,-27.83203125
1639,5.37109375,-62.5,-571.77734375,-17.08984375
1640,-1.46484375,20.5078125,-489.74609375,-8.7890625
1641,4.39453125,41.9921875,-417.48046875,3.90625
1642,8.7890625,-30.2734375,-537.109375,4.8828125
1643,-1.46484375,-52.734375,-653.80859375,3.41796875
1644,-12.20703125,71.77734375,-529.296875,11.23046875
1645,-15.13671875,87.40234375,-443.359375,5.37109375
1646,-19.53125,-1.953125,-589.35546875,-5.37109375
1647,-14.6484375,24.4140625,-574.21875,-4.39453125
1648,-11.23046875,21.97265625,-563.96484375,-3.90625
1649,-15.13671875,1.46484375,-602.5390625,-14.6484375
1650,-17.578125,-40.0390625,-639.6484375,-20.01953125
1651,-20.01953125,-19.04296875,-637.20703125,-8.30078125
1652,-18.5546875,82.03125,-491.69921875,-6.8359375
1653,-18.5546875,-2.44140625,-544.921875,-8.7890625
1655,-16.6015625,-59.5703125,-680.6640625,-1.953125
1656,-18.5546875,35.15625,-544.43359375,-0.48828125
1657,-11.23046875,-40.52734375,-630.37109375,5.859375
1658,-4.39453125,-45.8984375,-703.125,-1.953125
1659,-5.859375,13.18359375,-641.6015625,-15.13671875
1660,-6.34765625,-29.78515625,-654.296875,-22.94921875
1663,-16.6015625,1.953125,-703.125,-4.8828125
1664,-12.20703125,74.70703125,-559.5703125,-9.27734375
1665,-0.9765625,-11.23046875,-682.12890625,-1.953125
1666,-1.953125,17.578125,-687.5,-2.44140625
1667,-9.765625,50.78125,-624.51171875,-5.37109375
1668,-23.4375,1.953125,-671.875,-9.27734375
1669,-22.4609375,-8.30078125,-702.63671875,-7.32421875
1670,-13.18359375,45.8984375,-651.3671875,-14.6484375
1671,-22.4609375,89.35546875,-583.984375,-33.203125
1672,-29.296875,28.80859375,-627.44140625,-39.0625
1674,-24.90234375,42.48046875,-665.52734375,-20.5078125
1675,-21.97265625,121.09375,-535.15625,-23.4375
1676,-29.296875,56.15234375,-574.21875,-35.64453125
1677,-38.57421875,-11.23046875,-680.17578125,-38.57421875
1678,-34.66796875,28.3203125,-646.484375,-32.71484375
1679,-33.203125,101.5625,-527.34375,-38.0859375
1680,-33.69140625,49.31640625,-575.68359375,-39.0625
1681,-32.71484375,43.9453125,-618.1640625,-32.71484375
1682,-24.90234375,72.75390625,-585.9375,-33.203125
1683,-30.76171875,87.40234375,-547.36328125,-33.69140625
1684,-34.66796875,94.23828125,-522.94921875,-27.34375
1685,-23.4375,-29.78515625,-670.41015625,-23.4375
1686,-41.015625,88.8671875,-577.63671875,-32.2265625
1687,-41.015625,216.30859375,-335.9375,-36.62109375
1688,-25.390625,74.70703125,-462.890625,-27.34375
1689,-28.80859375,87.40234375,-520.01953125,-25.390625
1690,-22.94921875,140.13671875,-443.359375,-18.5546875
1691,-20.01953125,121.09375,-430.17578125,-14.16015625
1692,-22.4609375,70.80078125,-482.421875,-20.01953125
1693,-4.39453125,97.16796875,-467.28515625,-10.7421875
1694,15.625,159.1796875,-394.53125,10.7421875
1695,20.99609375,137.20703125,-383.30078125,16.6015625
1696,17.08984375,82.51953125,-434.08203125,6.34765625
1697,20.01953125,71.77734375,-455.078125,-2.9296875
1698,22.4609375,136.23046875,-376.46484375,5.37109375
1699,12.6953125,181.640625,-308.10546875,12.6953125
1700,15.625,90.33203125,-362.79296875,2.9296875
1701,1.46484375,77.63671875,-427.24609375,-1.953125
1702,-13.671875,240.234375,-229.98046875,-1.953125
1703,-0.9765625,161.62109375,-235.83984375,1.953125
1704,2.44140625,111.328125,-339.84375,3.41796875
1705,8.30078125,158.69140625,-297.8515625,5.37109375
1706,9.765625,165.0390625,-256.34765625,2.44140625
1707,1.953125,142.578125,-270.01953125,0.9765625
1708,10.25390625,125.9765625,-309.08203125,1.953125
1709,22.94921875,143.5546875,-298.828125,7.8125
1710,21.484375,188.4765625,-221.19140625,25.87890625
1711,0.48828125,185.546875,-188.4765625,9.765625
1712,-23.4375,69.3359375,-347.65625,-11.71875
1713,-18.06640625,171.875,-259.765625,-1.953125
1714,-10.25390625,273.4375,-52.24609375,-6.8359375
1715,-11.23046875,139.6484375,-222.16796875,-8.7890625
1716,-3.41796875,149.4140625,-268.5546875,-5.859375
1717,-14.6484375,192.87109375,-193.359375,-18.06640625
1718,-22.4609375,159.1796875,-203.61328125,-23.4375
1719,-12.6953125,118.1640625,-276.3671875,-25.390625
1720,-11.23046875,90.8203125,-333.984375,-23.92578125
1721,-9.765625,104.00390625,-313.4765625,-26.85546875
1722,-21.97265625,156.25,-235.83984375,-33.203125
1723,-35.15625,61.03515625,-302.734375,-30.2734375
1724,-35.64453125,60.05859375,-348.6328125,-24.90234375
1725,-31.73828125,177.24609375,-178.7109375,-27.34375
1726,-30.76171875,83.984375,-248.53515625,-32.71484375
1727,-27.34375,32.2265625,-356.93359375,-36.62109375
1728,-26.3671875,82.03125,-287.59765625,-39.0625
1729,-28.80859375,151.3671875,-176.26953125,-28.80859375
1730,-26.3671875,90.8203125,-224.609375,-21.484375
1731,-26.85546875,65.91796875,-303.22265625,-20.5078125
1732,-12.6953125,134.765625,-228.515625,-10.7421875
1733,-6.34765625,127.9296875,-174.31640625,-7.32421875
1734,-2.44140625,133.7890625,-171.38671875,-5.859375
1735,-3.90625,79.58984375,-248.53515625,1.46484375
1736,-17.08984375,127.9296875,-165.0390625,-0.48828125
1737,-21.484375,182.12890625,-15.625,-12.20703125
1738,-13.18359375,90.8203125,-120.1171875,-14.16015625
1739,-7.8125,104.98046875,-108.88671875,-15.625
1740,-13.18359375,104.4921875,-80.56640625,-20.01953125
1741,-18.5546875,107.421875,-39.0625,-27.34375
1742,-16.11328125,76.171875,-51.26953125,-20.01953125
1743,-16.11328125,88.37890625,-42.96875,-13.671875
1744,-24.90234375,119.62890625,54.19921875,-21.97265625
1745,-26.3671875,62.01171875,17.578125,-30.76171875
1746,-26.3671875,31.73828125,-5.37109375,-33.69140625
1747,-29.78515625,63.4765625,31.25,-30.2734375
1748,-24.90234375,164.55078125,193.84765625,-29.78515625
1749,-22.94921875,88.37890625,161.1328125,-33.69140625
1750,-30.2734375,38.0859375,71.2890625,-37.59765625
1751,-25.390625,72.265625,126.953125,-36.62109375
1752,-28.3203125,91.796875,180.6640625,-31.25
1753,-33.203125,61.03515625,134.765625,-24.90234375
1754,-27.34375,32.2265625,82.51953125,-24.90234375
1755,-34.1796875,73.73046875,121.09375,-31.25
1756,-32.71484375,61.03515625,147.4609375,-35.64453125
1757,-31.73828125,18.06640625,114.2578125,-34.1796875
1758,-28.80859375,-39.55078125,7.8125,-19.53125
1759,-19.53125,42.48046875,77.63671875,-8.7890625
1760,-28.80859375,135.7421875,274.4140625,-17.578125
1761,-28.80859375,10.7421875,138.671875,-19.53125
1762,-23.92578125,3.41796875,81.0546875,-18.5546875
1763,-22.94921875,21.97265625,116.69921875,-18.5546875
1764,-25.87890625,19.04296875,118.1640625,-11.23046875
1765,-28.3203125,-35.64453125,55.17578125,-8.7890625
1766,-20.01953125,-27.83203125,42.96875,-14.16015625
1767,-13.18359375,28.80859375,116.2109375,-15.13671875
1768,-14.16015625,-10.25390625,83.984375,-10.25390625
1769,-19.53125,-83.984375,-22.4609375,-10.7421875
1770,-21.97265625,-34.1796875,-6.34765625,-12.6953125
1771,-31.25,65.4296875,141.11328125,-19.04296875
1772,-18.06640625,41.9921875,148.4375,-17.578125
1773,0.48828125,-68.84765625,-27.34375,-1.953125
1774,-6.34765625,-29.296875,-14.16015625,1.46484375
1775,-5.37109375,101.07421875,159.1796875,-12.6953125
1776,0.0,33.69140625,68.359375,-21.97265625
1777,6.34765625,22.94921875,-3.90625,-15.625
1778,4.39453125,82.03125,33.69140625,-5.859375
1779,1.46484375,96.19140625,64.453125,-3.90625
1780,5.37109375,52.734375,19.04296875,-6.34765625
1781,3.90625,16.6015625,-104.4921875,-1.953125
1782,1.46484375,125.9765625,-11.23046875,2.44140625
1783,0.0,129.39453125,61.5234375,0.9765625
1784,0.48828125,68.359375,-43.45703125,6.8359375
1785,6.8359375,56.640625,-135.7421875,15.13671875
1786,6.8359375,138.671875,-41.015625,12.20703125
1787,4.8828125,170.8984375,51.26953125,9.765625
1788,11.71875,98.6328125,-82.51953125,20.01953125
1789,-5.37109375,125.48828125,-90.33203125,-8.30078125
1790,-22.94921875,152.34375,-50.78125,-35.15625
1791,-13.671875,139.16015625,-73.73046875,-21.484375
1792,-0.48828125,90.8203125,-161.1328125,-4.39453125
1793,7.8125,97.16796875,-193.84765625,6.34765625
1794,8.7890625,198.2421875,-69.3359375,9.27734375
1795,7.8125,207.51953125,-34.66796875,20.01953125
1796,11.23046875,106.93359375,-183.10546875,28.3203125
1798,27.83203125,220.21484375,-62.98828125,28.80859375
1799,19.04296875,182.12890625,-86.9140625,14.16015625
1800,21.484375,100.09765625,-200.68359375,16.11328125
1802,29.296875,227.5390625,-50.29296875,25.390625
1803,20.99609375,158.69140625,-114.2578125,17.08984375
1804,28.80859375,125.9765625,-167.48046875,18.5546875
1805,21.484375,157.2265625,-139.16015625,13.18359375
1806,19.53125,198.73046875,-41.015625,12.6953125
1807,27.83203125,168.9453125,-28.80859375,16.11328125
1808,21.97265625,77.63671875,-171.875,19.53125
1809,13.671875,163.0859375,-59.5703125,13.671875
1810,20.5078125,205.56640625,94.7265625,7.32421875
1811,16.6015625,112.79296875,-13.671875,5.859375
1812,9.27734375,100.5859375,-32.2265625,11.71875
1813,12.6953125,143.5546875,48.33984375,15.13671875
1814,16.6015625,168.9453125,126.46484375,2.44140625
1815,21.97265625,114.74609375,82.03125,3.41796875
1816,20.01953125,105.46875,68.84765625,8.30078125
1817,30.76171875,143.5546875,151.3671875,18.06640625
1818,42.96875,165.0390625,193.359375,23.4375
1819,43.9453125,120.60546875,180.6640625,28.80859375
1824,33.203125,170.41015625,256.8359375,30.2734375
1825,33.203125,194.82421875,327.1484375,21.484375
1826,35.64453125,159.66796875,291.50390625,8.7890625
1827,27.83203125,164.0625,236.81640625,5.859375
1828,23.92578125,210.44921875,292.96875,16.6015625
1829,36.1328125,175.29296875,281.25,20.01953125
1830,23.92578125,197.265625,281.73828125,14.16015625
1831,21.484375,130.859375,192.87109375,21.484375
1832,36.62109375,181.640625,256.34765625,25.390625
1833,23.92578125,262.20703125,413.0859375,14.16015625
1834,24.90234375,151.3671875,258.30078125,16.6015625
1835,22.94921875,172.8515625,243.65234375,16.6015625
1836,17.08984375,204.58984375,305.17578125,3.41796875
1837,14.6484375,164.0625,266.11328125,4.8828125
1838,6.8359375,110.3515625,184.5703125,9.765625
1839,-1.46484375,119.62890625,212.40234375,1.953125
1840,-2.9296875,108.3984375,241.2109375,0.0
1841,2.9296875,66.89453125,174.31640625,1.953125
1842,8.30078125,54.6875,187.5,0.0
1843,14.6484375,-9.765625,112.3046875,16.11328125
1844,7.8125,105.95703125,257.32421875,16.11328125
1845,6.34765625,91.30859375,344.23828125,-0.48828125
1846,4.39453125,-30.76171875,185.05859375,5.37109375
1847,-1.46484375,-15.625,211.42578125,3.90625
1848,-4.39453125,-11.23046875,270.01953125,-7.32421875
1849,0.0,-57.12890625,237.3046875,-12.20703125
1850,0.0,-76.66015625,199.70703125,-17.08984375
1851,0.0,-38.0859375,268.5546875,-24.90234375
1852,10.7421875,-91.796875,266.6015625,-20.01953125
1853,8.30078125,-147.94921875,228.02734375,-16.6015625
1854,8.7890625,-202.63671875,181.15234375,-10.7421875
1914,-0.9765625,-419.921875,200.68359375,-15.625
1915,8.30078125,-442.3828125,169.43359375,-6.34765625
1916,14.6484375,-466.30859375,67.87109375,19.53125
1917,-1.46484375,-299.8046875,235.3515625,0.0
1918,-15.13671875,-278.80859375,308.59375,-25.87890625
1919,2.9296875,-384.765625,91.796875,-5.37109375
1920,0.0,-302.734375,120.60546875,-4.39453125
1921,-3.41796875,-199.70703125,247.0703125,-13.18359375
1922,3.41796875,-239.74609375,164.0625,-7.32421875
1923,-4.39453125,-218.26171875,125.9765625,-6.34765625
1924,5.859375,-168.45703125,156.73828125,-5.37109375
1925,12.20703125,-168.45703125,137.6953125,-5.859375
1926,11.23046875,-103.515625,171.38671875,5.37109375
1927,13.671875,-144.53125,84.47265625,14.16015625
1928,11.71875,-75.68359375,124.51171875,11.71875
1929,19.53125,47.36328125,303.22265625,0.9765625
1930,18.5546875,-53.22265625,167.48046875,-3.90625
1931,2.44140625,-29.296875,79.1015625,-9.27734375
1932,6.8359375,68.359375,169.43359375,-9.765625
1933,11.23046875,52.24609375,185.546875,-4.8828125
1934,14.16015625,17.08984375,88.8671875,-10.25390625
1935,13.18359375,52.24609375,89.84375,-0.48828125
1936,5.37109375,91.30859375,140.625,12.6953125
1937,11.71875,104.00390625,113.28125,11.23046875
1938,7.32421875,105.46875,99.609375,7.8125
1939,-2.9296875,134.765625,81.0546875,8.30078125
1940,9.27734375,234.86328125,201.66015625,11.23046875
1941,9.27734375,182.12890625,174.31640625,1.953125
1942,4.8828125,104.98046875,22.4609375,3.90625
1943,-0.48828125,146.484375,74.21875,17.578125
1944,-8.30078125,213.8671875,172.8515625,18.5546875
1945,-4.8828125,173.33984375,135.25390625,9.27734375
1946,-7.8125,129.8828125,60.05859375,13.671875
1947,-6.34765625,195.3125,122.0703125,21.97265625
1948,-7.8125,171.875,172.8515625,15.625
1949,-4.39453125,113.76953125,96.6796875,0.9765625
1950,-7.8125,78.61328125,25.390625,4.39453125
1951,-18.06640625,133.7890625,120.60546875,12.20703125
1952,-15.13671875,208.0078125,289.55078125,4.39453125
1953,-12.6953125,95.703125,143.06640625,5.37109375
1954,-12.6953125,113.76953125,127.44140625,6.34765625
1955,0.9765625,165.0390625,247.0703125,2.44140625
1956,8.7890625,114.74609375,222.65625,1.46484375
1957,12.20703125,68.359375,172.36328125,6.8359375
1958,18.5546875,125.9765625,232.91015625,9.765625
1959,9.27734375,162.59765625,337.40234375,11.71875
1960,10.25390625,67.87109375,284.66796875,14.16015625
1961,17.08984375,1.46484375,201.171875,9.27734375
1962,8.30078125,67.3828125,239.2578125,13.18359375
1963,6.34765625,161.1328125,383.7890625,16.6015625
1964,20.5078125,89.35546875,355.46875,14.16015625
1965,16.11328125,19.53125,218.75,13.18359375
1966,4.8828125,46.875,222.16796875,8.30078125
1967,1.46484375,96.6796875,286.1328125,6.8359375
1968,3.90625,73.73046875,253.90625,8.7890625
1969,13.18359375,54.19921875,188.4765625,9.27734375
1970,9.765625,91.30859375,204.1015625,7.32421875
1971,6.34765625,91.796875,205.078125,8.7890625
1972,11.71875,90.8203125,210.44921875,12.6953125
1973,3.90625,-12.20703125,72.75390625,17.08984375
1974,-1.46484375,87.890625,125.48828125,24.90234375
1975,0.9765625,216.30859375,363.76953125,13.671875
1976,-1.953125,67.87109375,234.86328125,-0.9765625
1977,0.0,80.56640625,189.94140625,4.39453125
1978,-1.46484375,80.56640625,206.54296875,6.34765625
1979,-3.41796875,44.921875,184.5703125,-0.9765625
1980,1.46484375,35.64453125,160.15625,-5.37109375
1981,0.9765625,33.203125,156.73828125,-5.859375
1982,9.765625,65.4296875,204.58984375,0.9765625
1983,17.578125,57.6171875,212.890625,7.32421875
1984,16.6015625,21.97265625,174.31640625,11.23046875
1985,9.27734375,21.484375,152.83203125,11.23046875
1986,2.9296875,72.265625,251.953125,2.9296875
1987,11.71875,104.98046875,356.93359375,5.37109375
1988,11.71875,17.578125,290.52734375,8.30078125
1989,12.20703125,15.625,219.7265625,18.5546875
1990,18.06640625,195.80078125,478.02734375,22.94921875
1991,23.92578125,105.95703125,469.23828125,21.484375
1992,20.99609375,47.8515625,323.2421875,17.578125
1993,13.18359375,101.5625,396.97265625,7.32421875
1994,16.11328125,104.4921875,425.78125,12.6953125
1995,21.484375,74.21875,391.11328125,20.99609375
1996,9.27734375,41.9921875,348.14453125,14.6484375
1997,0.9765625,75.68359375,345.703125,6.8359375
1998,9.27734375,119.62890625,437.5,11.71875
1999,21.484375,98.6328125,461.9140625,17.08984375
2000,28.3203125,-15.625,281.73828125,21.97265625
2001,19.04296875,94.7265625,372.0703125,23.4375
2002,20.5078125,194.3359375,606.93359375,14.16015625
2003,22.94921875,56.15234375,470.703125,12.20703125
2004,18.06640625,69.3359375,431.640625,18.5546875
2005,18.5546875,119.140625,509.27734375,19.53125
2006,24.90234375,101.5625,520.99609375,17.08984375
2007,25.390625,71.77734375,481.4453125,16.6015625
2008,15.13671875,58.10546875,478.515625,20.5078125
2009,20.5078125,91.30859375,534.66796875,26.85546875
2010,33.69140625,154.296875,637.20703125,28.3203125
2011,24.4140625,70.3125,603.515625,15.625
2012,16.11328125,56.640625,528.80859375,15.13671875
2013,19.04296875,175.78125,703.125,20.99609375
2014,14.16015625,86.9140625,676.7578125,21.484375
2015,8.30078125,-4.39453125,546.38671875,22.4609375
2016,1.46484375,36.1328125,602.5390625,16.11328125
2018,0.9765625,53.22265625,701.171875,10.7421875
2019,16.11328125,44.43359375,657.71484375,12.6953125
2020,20.5078125,68.359375,699.21875,18.06640625
2021,15.625,41.015625,656.73828125,20.01953125
2022,12.20703125,55.6640625,638.671875,20.99609375
2023,18.06640625,25.87890625,561.03515625,27.34375
2024,22.94921875,74.70703125,587.40234375,20.01953125
2025,14.16015625,71.77734375,625.9765625,12.20703125
2026,11.71875,-37.109375,443.84765625,12.6953125
2027,23.4375,-43.9453125,312.01171875,17.578125
2028,16.6015625,4.8828125,338.8671875,15.13671875
2029,4.39453125,-83.49609375,246.58203125,11.23046875
2030,9.765625,-130.37109375,124.51171875,9.27734375
2031,14.16015625,-76.171875,141.6015625,7.32421875
2032,14.6484375,-92.7734375,123.046875,5.859375
2033,25.390625,-169.43359375,-10.25390625,5.859375
2034,37.109375,-196.2890625,-113.28125,13.671875
2035,36.1328125,-175.78125,-161.62109375,20.01953125
2036,29.296875,-101.07421875,-56.640625,19.53125
2037,28.80859375,-208.0078125,-136.23046875,18.06640625
2038,27.34375,-311.5234375,-337.40234375,30.2734375
2040,34.66796875,-283.203125,-307.6171875,24.4140625
2041,36.62109375,-343.75,-359.86328125,22.4609375
2042,32.71484375,-403.80859375,-446.2890625,28.80859375
2044,36.1328125,-438.4765625,-423.33984375,30.76171875
2045,32.71484375,-465.8203125,-401.85546875,17.08984375
2071,45.8984375,-431.640625,-235.3515625,19.53125
2075,38.57421875,-361.81640625,-103.02734375,16.11328125
2076,30.2734375,-448.2421875,-227.5390625,2.44140625
2077,30.76171875,-412.59765625,-250.48828125,14.16015625
2078,35.15625,-340.33203125,-148.4375,25.390625
2087,36.1328125,-241.2109375,-66.89453125,29.296875
2088,35.15625,-260.7421875,-133.30078125,20.5078125
2095,48.33984375,-61.5234375,20.5078125,26.3671875
2096,44.921875,-150.390625,-177.24609375,24.4140625
2097,49.8046875,-59.5703125,-114.74609375,30.76171875
2098,49.8046875,19.04296875,53.7109375,24.4140625
2099,42.96875,-71.77734375,-104.98046875,25.390625
2105,22.4609375,-28.3203125,-262.6953125,21.484375
2106,23.4375,-8.30078125,-259.765625,14.6484375
2107,22.94921875,-60.546875,-351.07421875,18.06640625
2108,17.08984375,-73.2421875,-395.01953125,21.484375
2109,17.08984375,3.41796875,-321.2890625,21.97265625
2110,20.01953125,-2.9296875,-347.16796875,17.578125
2130,47.8515625,-238.28125,-284.1796875,20.5078125
2135,40.52734375,-211.42578125,-195.80078125,26.85546875
2136,38.0859375,-163.0859375,-121.09375,15.13671875
2137,26.3671875,-195.80078125,-177.24609375,12.6953125
2138,19.53125,-195.3125,-229.00390625,16.11328125
2139,25.87890625,-128.41796875,-167.96875,18.5546875
2140,31.73828125,-143.06640625,-158.69140625,26.85546875
2141,22.4609375,-145.99609375,-197.265625,25.390625
2142,9.27734375,-164.55078125,-250.9765625,18.5546875
2143,13.18359375,-110.3515625,-168.45703125,27.83203125
2144,18.06640625,-34.66796875,-11.23046875,30.2734375
2145,21.97265625,-104.00390625,-90.33203125,21.484375
2146,20.99609375,-62.5,-75.1953125,19.53125
2147,25.390625,-9.27734375,46.38671875,24.90234375
2148,28.80859375,-67.87109375,44.921875,26.3671875
2163,27.83203125,-34.66796875,2.9296875,26.85546875
2164,27.34375,-89.35546875,-72.75390625,25.390625
2168,30.76171875,-64.94140625,-106.4453125,28.80859375
2169,17.08984375,-48.828125,-164.55078125,25.87890625
2170,24.4140625,41.50390625,-54.6875,29.78515625
2175,26.85546875,62.98828125,34.1796875,21.484375
2176,15.13671875,1.953125,-44.43359375,16.6015625
2177,19.53125,18.06640625,-74.21875,20.99609375
2178,27.34375,119.62890625,70.80078125,30.76171875
2180,22.4609375,10.7421875,-19.53125,29.78515625
2181,18.5546875,51.7578125,-14.16015625,25.87890625
2182,22.94921875,192.87109375,189.453125,24.4140625
2183,23.4375,113.28125,166.015625,28.80859375
2184,19.04296875,46.38671875,35.64453125,29.78515625
2185,5.859375,82.51953125,64.94140625,9.765625
2186,7.8125,114.2578125,133.7890625,-3.41796875
2187,15.13671875,76.171875,104.00390625,1.953125
2188,13.18359375,4.8828125,-13.671875,9.27734375
2189,9.27734375,75.68359375,26.3671875,10.7421875
2190,11.23046875,153.3203125,160.15625,8.7890625
2191,5.859375,107.421875,126.46484375,-3.90625
2192,-4.8828125,10.25390625,-67.3828125,-11.71875
2193,-1.953125,119.140625,25.87890625,0.0
2194,4.39453125,187.01171875,172.8515625,7.8125
2195,1.953125,96.19140625,17.578125,2.9296875
2196,-1.46484375,174.8046875,36.1328125,-1.953125
2197,-5.859375,215.8203125,112.79296875,4.8828125
2198,-15.13671875,183.59375,86.42578125,1.46484375
2199,-18.5546875,158.69140625,-8.30078125,-4.8828125
2200,-21.484375,158.203125,-29.78515625,-3.90625
2201,-11.71875,203.125,3.90625,-2.9296875
2202,-16.11328125,242.1875,10.7421875,-9.765625
2203,-23.4375,218.26171875,-10.25390625,-24.90234375
2204,-15.625,176.26953125,-121.09375,-27.34375
2205,-19.53125,324.21875,41.9921875,-26.85546875
2206,-22.94921875,327.1484375,109.86328125,-30.2734375
2207,-23.92578125,237.3046875,-70.80078125,-26.3671875
2208,-14.6484375,293.9453125,-23.92578125,-17.08984375
2209,-16.11328125,333.49609375,41.50390625,-20.5078125
2210,-27.34375,296.38671875,-19.04296875,-35.15625
2211,-25.87890625,305.17578125,-45.8984375,-37.109375
2212,-29.296875,335.9375,-4.39453125,-34.66796875
2213,-30.76171875,307.12890625,-24.90234375,-27.34375
2214,-32.2265625,340.8203125,6.8359375,-19.53125
2215,-31.25,270.5078125,-79.1015625,-27.34375
2216,-24.4140625,300.78125,-57.12890625,-30.76171875
2217,-23.4375,418.45703125,141.11328125,-23.92578125
2218,-18.06640625,344.7265625,65.4296875,-26.3671875
2219,-11.23046875,353.02734375,-13.18359375,-18.5546875
2220,-13.671875,433.59375,93.26171875,-13.18359375
2221,-15.625,380.37109375,94.23828125,-20.01953125
2222,-11.71875,331.0546875,12.20703125,-21.484375
2223,-6.34765625,364.2578125,45.41015625,-22.4609375
2224,-3.41796875,376.46484375,77.1484375,-31.73828125
2225,-7.8125,340.33203125,14.6484375,-32.2265625
2226,-14.16015625,339.35546875,7.32421875,-30.76171875
2227,-14.16015625,368.65234375,22.4609375,-24.90234375
2228,-15.13671875,458.49609375,165.0390625,-23.92578125
2229,-12.20703125,403.3203125,160.15625,-25.390625
2230,-14.6484375,317.3828125,3.90625,-25.87890625
2231,-20.01953125,354.4921875,29.78515625,-25.390625
2232,-21.484375,416.015625,148.92578125,-17.08984375
2233,-19.53125,364.74609375,131.8359375,-20.99609375
2234,-21.484375,249.51171875,-16.6015625,-19.53125
2235,-24.4140625,291.015625,38.0859375,-19.04296875
2236,-20.01953125,316.40625,142.578125,-28.3203125
2237,-22.94921875,242.1875,58.10546875,-28.80859375
2238,-25.390625,191.40625,-16.6015625,-11.71875
2239,-28.80859375,223.6328125,50.29296875,-10.25390625
2240,-30.2734375,294.921875,215.33203125,-28.80859375
2241,-26.85546875,184.5703125,88.8671875,-35.15625
2242,17.578125,225.09765625,87.890625,10.7421875
2257,21.484375,-35.64453125,-7.8125,14.6484375
2258,12.20703125,11.71875,25.390625,3.90625
2259,3.90625,-0.48828125,47.36328125,1.953125
2260,-2.44140625,-34.66796875,-11.71875,-2.9296875
2261,-4.8828125,-93.75,-123.53515625,-8.7890625
2262,-5.37109375,4.39453125,-48.33984375,-5.859375
2263,-8.30078125,133.30078125,174.31640625,-15.625
2264,-0.48828125,-17.578125,44.921875,-20.99609375
2265,-6.34765625,-20.01953125,-22.4609375,-10.25390625
2266,-14.6484375,9.27734375,25.390625,-14.16015625
2267,-11.71875,-29.296875,23.4375,-19.04296875
2268,-20.5078125,-79.1015625,-46.38671875,-20.01953125
2269,-30.2734375,-81.0546875,-52.24609375,-28.80859375
2270,-25.87890625,-60.546875,14.16015625,-23.92578125
2271,-31.25,-101.07421875,-14.16015625,-23.92578125
2272,-44.43359375,-169.43359375,-93.75,-40.0390625
2273,-32.71484375,-177.734375,-109.375,-41.50390625
2274,-26.3671875,-115.72265625,-36.62109375,-44.921875
2275,-28.80859375,-75.68359375,30.2734375,-43.9453125
2276,-19.53125,-142.578125,-31.25,-31.25
2277,-19.04296875,-158.69140625,-139.16015625,-32.71484375
2278,-15.13671875,15.625,73.73046875,-27.83203125
2279,-3.41796875,-48.33984375,89.84375,-16.11328125
2280,-3.90625,-127.44140625,-56.640625,-20.5078125
2281,-17.578125,-91.796875,-23.92578125,-23.92578125
2282,-16.6015625,-78.125,16.11328125,-29.78515625
2283,-4.8828125,-103.02734375,-15.13671875,-24.4140625
2284,-5.37109375,-130.37109375,-58.10546875,-17.08984375
2285,-4.39453125,-112.3046875,-45.8984375,-22.94921875
2286,2.9296875,-56.15234375,43.45703125,-22.4609375
2287,7.32421875,-58.10546875,61.5234375,-22.4609375
2288,4.8828125,-177.24609375,-131.8359375,-13.671875
2289,8.30078125,-80.078125,-59.08203125,2.9296875
2290,0.48828125,43.45703125,149.90234375,-2.44140625
2291,-1.46484375,-56.15234375,1.46484375,-6.34765625
2292,-9.27734375,-18.06640625,-36.62109375,-14.16015625
2293,-18.06640625,39.0625,32.71484375,-28.3203125
2294,-22.4609375,5.37109375,-11.71875,-43.9453125
2295,-26.3671875,-22.94921875,-104.4921875,-41.50390625
2296,-15.13671875,4.8828125,-119.140625,-38.57421875
2297,-10.7421875,71.77734375,-68.359375,-39.55078125
2298,-20.01953125,126.46484375,-28.3203125,-33.203125
2299,-23.92578125,75.68359375,-87.40234375,-36.62109375
2300,-24.90234375,85.44921875,-168.9453125,-37.59765625
2301,-31.25,233.88671875,-7.8125,-37.109375
2302,-27.34375,160.64453125,-46.38671875,-38.0859375
2303,-16.11328125,79.1015625,-229.98046875,-31.73828125
2304,-17.578125,150.390625,-165.0390625,-30.76171875
2305,-21.484375,223.14453125,-51.26953125,-22.94921875
2306,-10.7421875,153.3203125,-151.85546875,-24.4140625
2307,-28.3203125,119.62890625,-235.83984375,-55.17578125
2308,-49.31640625,130.859375,-209.9609375,-71.77734375
2309,-51.7578125,100.09765625,-228.515625,-77.63671875
2310,-56.15234375,107.91015625,-217.7734375,-92.7734375
2311,-54.19921875,2.44140625,-327.63671875,-85.44921875
2312,-62.01171875,22.4609375,-294.921875,-86.42578125
2313,-85.9375,75.1953125,-127.9296875,-108.88671875
2314,-96.6796875,-62.5,-273.92578125,-114.74609375
2315,-95.21484375,-61.03515625,-331.0546875,-112.79296875
2316,-93.26171875,-16.11328125,-277.83203125,-106.4453125
2317,-87.890625,-60.546875,-318.84765625,-96.6796875
2318,-101.07421875,-82.03125,-360.3515625,-101.5625
2319,-120.1171875,-16.6015625,-305.6640625,-110.83984375
2320,-114.74609375,-5.37109375,-269.04296875,-104.98046875
2321,-104.98046875,-71.2890625,-346.6796875,-104.00390625
2322,-106.93359375,-90.33203125,-399.4140625,-116.2109375
2323,-105.46875,-58.10546875,-387.20703125,-107.421875
2324,-104.4921875,25.87890625,-274.90234375,-104.98046875
2325,-95.703125,-34.66796875,-299.31640625,-112.79296875
2326,-82.03125,-99.12109375,-418.9453125,-100.5859375
2327,-92.7734375,-77.1484375,-406.73828125,-95.703125
2328,-89.84375,-35.64453125,-352.05078125,-94.23828125
2329,-77.63671875,-66.89453125,-390.625,-93.75
2330,-75.68359375,-83.984375,-432.6171875,-91.30859375
2331,-70.3125,-56.640625,-402.34375,-89.35546875
2332,-65.4296875,-81.54296875,-403.80859375,-81.0546875
2333,-59.5703125,-69.3359375,-404.78515625,-69.82421875
2334,-51.7578125,-139.6484375,-477.5390625,-65.4296875
2335,-52.734375,-59.5703125,-414.55078125,-70.3125
2336,-57.12890625,62.98828125,-202.63671875,-78.125
2337,-50.78125,-84.9609375,-310.05859375,-69.3359375
2338,-54.19921875,-85.9375,-363.28125,-69.82421875
2339,-58.59375,-37.59765625,-288.0859375,-74.21875
2340,-49.8046875,-77.63671875,-295.41015625,-69.3359375
2341,-47.36328125,-145.01953125,-378.90625,-68.84765625
2342,-54.6875,-138.671875,-374.51171875,-76.171875
2343,-61.03515625,-91.796875,-316.40625,-83.0078125
2344,-57.12890625,-126.46484375,-347.16796875,-90.8203125
2345,-54.19921875,-169.43359375,-390.13671875,-91.796875
2346,-65.4296875,-168.9453125,-444.3359375,-68.359375
2347,-61.5234375,-19.53125,-265.13671875,-53.22265625
2348,-46.875,0.9765625,-155.76171875,-61.03515625
2349,-49.31640625,-132.8125,-355.95703125,-56.640625
2350,-56.15234375,-106.93359375,-358.88671875,-52.24609375
2351,-56.640625,-13.671875,-223.14453125,-58.10546875
2352,-51.7578125,-41.50390625,-241.2109375,-62.98828125
2353,-45.41015625,-65.91796875,-315.4296875,-62.98828125
2354,-48.828125,-17.08984375,-291.50390625,-59.5703125
2355,-60.546875,26.3671875,-227.5390625,-60.05859375
2356,-53.7109375,10.7421875,-226.07421875,-59.08203125
2357,-41.9921875,-75.68359375,-345.703125,-51.26953125
2358,-38.57421875,14.6484375,-292.96875,-46.875
2359,-28.3203125,111.81640625,-123.046875,-46.38671875
2360,-31.73828125,29.296875,-183.10546875,-43.9453125
2361,-33.203125,-64.94140625,-339.84375,-41.50390625
2362,-36.1328125,42.48046875,-217.28515625,-49.8046875
2363,-39.55078125,108.88671875,-63.96484375,-50.29296875
2364,-48.33984375,-4.39453125,-212.890625,-43.9453125
2365,-50.29296875,31.25,-199.70703125,-41.9921875
2366,-40.0390625,77.1484375,-121.09375,-39.0625
2367,-30.76171875,68.359375,-140.625,-38.57421875
2368,-30.2734375,34.1796875,-189.94140625,-38.0859375
2369,-31.25,22.94921875,-217.7734375,-31.25
2370,-33.203125,122.0703125,-104.98046875,-24.90234375
2371,-37.59765625,144.04296875,-66.89453125,-35.64453125
2372,-36.62109375,56.15234375,-198.2421875,-40.0390625
2373,-34.66796875,96.6796875,-194.3359375,-35.15625
2374,-31.25,215.8203125,-38.0859375,-43.9453125
2375,-30.2734375,143.5546875,-101.07421875,-53.7109375
2376,-28.80859375,63.4765625,-223.6328125,-47.36328125
2377,-38.0859375,125.48828125,-152.83203125,-40.52734375
2378,-47.8515625,206.54296875,-39.55078125,-44.921875
2379,-35.15625,163.0859375,-95.703125,-38.57421875
2380,-26.3671875,145.99609375,-155.76171875,-27.83203125
2381,-26.3671875,165.52734375,-158.203125,-29.78515625
2382,-25.87890625,238.76953125,-38.0859375,-33.69140625
2383,-28.3203125,201.66015625,-46.875,-37.109375
2384,-32.2265625,182.12890625,-146.97265625,-35.64453125
2385,-20.99609375,276.3671875,-47.8515625,-24.90234375
2386,-13.18359375,241.69921875,-29.78515625,-20.99609375
2387,-18.5546875,189.453125,-110.3515625,-20.99609375
2388,-23.4375,238.28125,-101.5625,-24.4140625
2389,-27.83203125,263.18359375,-58.59375,-20.5078125
2390,-28.3203125,264.16015625,-46.875,-17.578125
2391,-31.73828125,277.34375,-32.2265625,-33.203125
2392,-37.59765625,159.66796875,-210.44921875,-36.1328125
2393,-31.73828125,263.671875,-130.859375,-30.76171875
2394,-20.5078125,393.06640625,104.98046875,-29.78515625
2395,-19.04296875,260.7421875,-33.69140625,-22.94921875
2396,-33.203125,266.6015625,-101.5625,-18.06640625
2397,-35.64453125,377.9296875,42.48046875,-19.53125
2398,-23.92578125,317.87109375,4.39453125,-26.85546875
2399,-24.90234375,256.34765625,-117.1875,-32.71484375
2400,-27.83203125,295.8984375,-79.1015625,-35.15625
2401,-21.97265625,342.7734375,-7.8125,-35.64453125
2402,-22.4609375,312.01171875,-51.26953125,-42.48046875
2403,-26.3671875,299.8046875,-106.4453125,-42.96875
2404,-24.4140625,334.9609375,-88.37890625,-34.66796875
2405,-21.97265625,346.19140625,-49.31640625,-36.1328125
2406,-32.2265625,344.7265625,-45.41015625,-41.50390625
2407,-20.99609375,306.640625,-113.28125,-25.87890625
2408,-6.8359375,372.0703125,-42.48046875,-17.08984375
2409,-22.4609375,403.80859375,50.29296875,-30.2734375
2410,-22.4609375,315.4296875,-31.25,-21.484375
2411,-11.71875,250.0,-162.59765625,-11.71875
2412,-24.4140625,360.3515625,-53.7109375,-12.6953125
2413,-30.2734375,409.1796875,84.47265625,-22.4609375
2414,-29.296875,309.08203125,-40.52734375,-38.57421875
2415,-29.296875,322.265625,-39.0625,-49.31640625
2416,-43.9453125,330.078125,7.8125,-56.15234375
2417,-60.546875,289.0625,-37.109375,-51.7578125
2418,-54.6875,297.36328125,-22.4609375,-46.38671875
2419,-55.6640625,240.234375,-89.35546875,-34.66796875
2420,-53.7109375,356.4453125,72.265625,-35.64453125
2421,-48.33984375,380.37109375,191.89453125,-46.38671875
2422,-41.015625,250.9765625,10.7421875,-44.43359375
2423,-38.57421875,284.1796875,47.8515625,-45.8984375
2424,-44.921875,322.265625,145.01953125,-50.29296875
2425,-38.0859375,282.2265625,129.8828125,-52.734375
2426,-43.45703125,236.81640625,86.42578125,-47.36328125
2427,-45.41015625,275.87890625,125.9765625,-41.9921875
2428,-44.43359375,254.8828125,161.62109375,-47.8515625
2429,-57.6171875,211.9140625,134.27734375,-57.6171875
2430,-61.03515625,138.671875,56.640625,-59.08203125
2431,-58.59375,187.98828125,140.625,-61.5234375
2432,-51.26953125,259.765625,285.15625,-62.98828125
2433,-60.05859375,125.9765625,141.11328125,-62.98828125
2434,-75.68359375,150.390625,106.93359375,-77.63671875
2435,-87.890625,207.03125,186.5234375,-90.33203125
2436,-100.09765625,155.2734375,175.29296875,-106.4453125
2438,-121.09375,110.3515625,76.171875,-116.69921875
2454,-110.83984375,36.62109375,41.50390625,-104.98046875
2455,-108.3984375,102.05078125,214.84375,-101.5625
2456,-110.83984375,-50.29296875,99.12109375,-102.5390625
2457,-105.95703125,-63.4765625,84.9609375,-94.7265625
2458,-112.79296875,-43.45703125,165.0390625,-93.26171875
2459,-119.140625,-125.48828125,161.1328125,-101.5625
2460,-114.2578125,-200.68359375,91.796875,-102.5390625
2461,-111.81640625,-231.4453125,75.68359375,-105.46875
2462,-109.375,-213.8671875,137.20703125,-104.98046875
2463,-94.7265625,-215.33203125,173.828125,-93.75
2464,-92.7734375,-302.734375,106.93359375,-95.703125
2465,-96.19140625,-395.01953125,-36.62109375,-96.19140625
2466,-100.09765625,-247.55859375,127.9296875,-90.33203125
2467,-91.30859375,-206.54296875,292.48046875,-84.9609375
2468,-80.56640625,-369.62890625,135.7421875,-75.68359375
2469,-76.171875,-353.515625,138.671875,-75.1953125
2470,-58.10546875,-269.04296875,247.55859375,-58.10546875
2471,-52.734375,-301.7578125,221.6796875,-42.48046875
2472,-46.38671875,-332.51953125,167.48046875,-46.875
2473,-48.828125,-301.7578125,166.9921875,-46.38671875
2474,-52.734375,-279.296875,209.9609375,-40.0390625
2475,-38.0859375,-309.5703125,175.78125,-34.1796875
2476,-33.69140625,-371.09375,59.08203125,-31.73828125
2477,-44.921875,-329.1015625,76.171875,-34.66796875
2478,-45.41015625,-263.18359375,183.10546875,-32.2265625
2479,-35.15625,-277.34375,183.59375,-25.390625
2480,-30.2734375,-423.33984375,-13.671875,-19.04296875
2481,-44.43359375,-324.70703125,19.53125,-32.2265625
2482,-62.01171875,-199.21875,229.98046875,-51.7578125
2483,-56.15234375,-346.19140625,108.3984375,-55.6640625
2484,-45.8984375,-332.51953125,84.9609375,-51.26953125
2485,-48.33984375,-295.41015625,141.11328125,-54.6875
2486,-54.19921875,-328.61328125,139.16015625,-55.6640625
2487,-48.33984375,-361.328125,101.5625,-50.78125
2488,-40.52734375,-379.8828125,79.1015625,-50.29296875
2489,-34.66796875,-355.46875,112.79296875,-52.24609375
2490,-40.52734375,-341.796875,114.74609375,-60.546875
2491,-44.43359375,-367.1875,109.86328125,-62.98828125
2492,-47.36328125,-404.78515625,24.90234375,-54.19921875
2493,-56.640625,-254.39453125,180.17578125,-52.734375
2494,-62.01171875,-234.375,278.3203125,-61.5234375
2495,-70.80078125,-352.05078125,100.5859375,-69.3359375
2496,-71.2890625,-300.78125,131.34765625,-68.359375
2497,-61.03515625,-254.8828125,205.56640625,-66.89453125
2498,-59.08203125,-288.0859375,174.8046875,-77.63671875
2499,-66.40625,-289.55078125,129.8828125,-85.9375
2500,-71.77734375,-253.90625,149.4140625,-90.33203125
2501,-65.91796875,-241.2109375,163.57421875,-85.9375
2502,-61.03515625,-190.4296875,196.77734375,-80.078125
2503,-63.4765625,-252.44140625,94.7265625,-73.73046875
2504,-50.78125,-193.84765625,129.8828125,-70.3125
2505,-57.12890625,-79.58984375,288.0859375,-79.1015625
2506,-70.3125,-122.0703125,226.07421875,-86.9140625
2507,-73.73046875,-114.74609375,160.64453125,-86.42578125
2508,-75.68359375,-31.73828125,216.30859375,-79.58984375
2509,-74.21875,-43.9453125,216.796875,-81.0546875
2510,-76.66015625,-84.9609375,110.3515625,-80.56640625
2511,-74.21875,-49.8046875,94.7265625,-75.1953125
2512,-70.3125,0.48828125,130.37109375,-77.1484375
2513,-65.91796875,-15.625,54.6875,-78.61328125
2514,-67.87109375,-8.7890625,2.9296875,-78.61328125
2515,-56.640625,48.33984375,-10.7421875,-72.265625
2516,-50.78125,163.57421875,87.890625,-70.80078125
2517,-50.29296875,114.74609375,57.6171875,-72.75390625
2518,-45.8984375,56.15234375,-85.44921875,-68.84765625
2519,-47.36328125,96.19140625,-104.00390625,-60.546875
2520,-49.8046875,176.7578125,-25.390625,-51.7578125
2521,-51.7578125,210.44921875,3.41796875,-49.31640625
2522,-56.640625,113.28125,-140.625,-58.59375
2523,-57.12890625,166.9921875,-132.32421875,-73.2421875
2524,-44.921875,246.58203125,-34.66796875,-76.66015625
2525,-39.55078125,206.54296875,-101.5625,-80.56640625
2526,-36.1328125,180.6640625,-183.59375,-79.58984375
2527,-32.71484375,255.37109375,-104.4921875,-62.5
2528,-27.83203125,373.046875,51.26953125,-66.89453125
2529,-27.34375,286.1328125,-69.82421875,-67.87109375
2530,-39.0625,319.82421875,-84.9609375,-58.59375
2531,-44.43359375,382.8125,-19.04296875,-59.5703125
2532,-49.31640625,364.74609375,-28.80859375,-50.78125
2533,-52.734375,325.68359375,-99.609375,-47.8515625
2534,-61.03515625,369.62890625,-73.73046875,-56.640625
2535,-64.94140625,448.73046875,24.4140625,-64.453125
2536,-50.78125,386.23046875,-56.15234375,-63.4765625
2537,-47.36328125,341.796875,-126.953125,-60.05859375
2538,-49.8046875,349.12109375,-163.57421875,-62.98828125
2539,-53.22265625,480.46875,-9.765625,-67.3828125
2540,-49.31640625,478.02734375,59.5703125,-74.70703125
2541,-44.43359375,373.046875,-101.5625,-77.1484375
2542,-49.8046875,409.1796875,-89.35546875,-73.2421875
2543,-47.8515625,446.77734375,-30.2734375,-75.68359375
2544,-49.8046875,429.19921875,-40.52734375,-77.1484375
2545,-52.734375,387.6953125,-117.67578125,-60.05859375
2546,-44.921875,425.29296875,-84.47265625,-58.59375
2547,-35.15625,443.84765625,-25.87890625,-59.08203125
2548,-31.25,399.4140625,-85.9375,-49.31640625
2549,-37.59765625,297.8515625,-197.265625,-47.36328125
2550,-48.33984375,381.8359375,-118.65234375,-57.6171875
2552,-54.19921875,351.07421875,-42.96875,-66.89453125
2553,-41.9921875,358.3984375,-103.515625,-56.15234375
2554,-32.71484375,394.04296875,-50.29296875,-56.640625
2555,-36.62109375,355.95703125,-46.38671875,-50.78125
2556,-41.9921875,306.15234375,-92.28515625,-50.29296875
2557,-36.1328125,316.89453125,-92.7734375,-46.38671875
2558,-35.64453125,346.19140625,-29.296875,-36.1328125
2559,-40.0390625,296.875,-54.19921875,-42.48046875
2560,-33.69140625,238.76953125,-110.83984375,-46.875
